File: data/Z_s16_1.4.txt
Index	Frequency (Hz)	Z' (Ω)	-Z'' (Ω)	Z (Ω)	-Phase (°)	Time (s)
1	1000000	4231.52	3815.25	5697.54	42.0386	20.5465
2	794330	4894.8	3437.9	5981.48	35.0826	22.2385
3	630960	5642.94	3188.52	6481.47	29.4685	24.2356
4	501190	6311.68	2965.64	6973.68	25.1672	25.9176
5	398110	7095.28	2752.49	7610.47	21.2029	27.7446
6	316230	7584.85	2519.54	7992.37	18.3755	29.3117
7	251190	7842.86	2179.77	8140.13	15.5323	31.0737
8	199530	8212.77	1962.09	8443.9	13.4365	32.7857
9	158490	8507.39	1739.66	8683.43	11.557	34.5828
10	125890	8749.46	1525.64	8881.48	9.8912	36.1598
11	100000	8937.21	1325.54	9034.97	8.43643	37.9418
12	79433	9087.37	1145.7	9159.3	7.18571	39.6889
13	63096	9215.84	985.976	9268.43	6.10668	41.4059
14	50119	9313.13	844.188	9351.31	5.17941	43.0579
15	39811	9390.08	719.047	9417.57	4.37889	44.755
16	31623	9446.94	610.402	9466.64	3.69696	46.537
17	25119	9489.52	529.888	9504.3	3.19604	48.134
18	19953	9541.85	459.52	9552.91	2.75714	49.9711
19	15849	9574.91	400.53	9583.28	2.39535	51.6581
20	12589	9607.09	351.584	9613.52	2.09588	53.4701
21	10000	9636.78	311.81	9641.82	1.85323	55.0171
22	7943.3	9667.71	279.396	9671.75	1.65538	57.8912
23	6309.6	9691.87	252.735	9695.17	1.49377	59.6732
24	5011.9	9711.33	231.977	9714.1	1.36838	61.4603
25	3981.1	9736.25	214.756	9738.62	1.26359	63.3623
26	3162.3	9758.39	201.463	9760.47	1.18271	65.1893
27	2511.9	9779.81	190.743	9781.67	1.11734	67.2414
28	1995.3	9800.69	182.952	9802.4	1.06943	68.9534
29	1584.9	9823.2	177.898	9824.81	1.03751	70.6254
30	1258.9	9843.02	173.757	9844.55	1.01133	72.3275
31	1000	9862.48	173.333	9864	1.00687	74.1595
32	794.33	9883.42	173.143	9884.93	1.00364	75.9265
33	630.96	9906.26	176.521	9907.83	1.02085	77.6386
34	501.19	9931.6	180.174	9933.24	1.03932	79.4156
35	398.11	9950.25	186.745	9952.01	1.07519	80.9276
36	316.23	9972.66	194.936	9974.56	1.11982	82.6397
37	251.19	9996.14	207.574	9998.29	1.1896	84.3067
38	199.53	10020.5	221.88	10023	1.26847	86.1737
39	158.49	10042.3	238.742	10045.2	1.36187	87.8658
40	125.89	10071.8	261.066	10075.2	1.4848	89.7328
41	100	10101.2	287.847	10105.3	1.63229	91.3248
42	79.433	10137.7	313.6	10142.5	1.77183	93.1619
43	63.096	10181.5	342.796	10187.3	1.92834	94.9239
44	50.119	10216.5	392.55	10224	2.2004	96.9059
45	39.811	10273.2	421.679	10281.8	2.35048	98.588
46	31.623	10323.8	465.504	10334.3	2.58173	100.66
47	25.119	10396.4	511.269	10408.9	2.8154	102.577
48	19.953	10463.6	560.372	10478.6	3.06553	104.884
49	15.849	10535.9	614.581	10553.8	3.33841	107.726
50	12.589	10614.7	667.368	10635.6	3.59758	110.043
51	10	10700.6	732.356	10725.6	3.91525	112.83
52	7.9433	10797.6	798.401	10827	4.22891	115.492
53	6.3096	10881.6	877.948	10916.9	4.61275	118.269
54	5.0119	10984.1	969.33	11026.7	5.04322	121.116
55	3.9811	11089.3	1081.6	11141.9	5.57075	123.743
56	3.1623	11191.8	1205.25	11256.5	6.14652	126.58
57	2.5119	11309.1	1354.98	11390	6.83219	129.603
58	1.9953	11440.5	1537.27	11543.4	7.653	132.745
59	1.5849	11563.5	1749.93	11695.1	8.60541	136.062
60	1.2589	11719.4	2011.74	11890.8	9.7404	139.439
61	1	11870.9	2329.55	12097.3	11.1027	143.311
62	0.79433	12066.1	2697	12363.8	12.5996	147.173
63	0.63096	12245.2	3154.38	12644.9	14.4454	151.09
64	0.50119	12453.7	3746.15	13005	16.7415	155.372
65	0.39811	12635	4428.76	13388.7	19.3163	160.034
66	0.31623	12883.4	5279.16	13923	22.2821	165.236
67	0.25119	13225.1	6425.3	14703.3	25.9125	171.008
68	0.19953	13507.4	7653.24	15524.9	29.5357	177.5
69	0.15849	13910	9234.72	16696.4	33.5797	185.098
70	0.12589	14417.3	11217.2	18267.1	37.8842	194.025
71	0.1	15096.1	13560.9	20292.6	41.9335	205.252