File: data/Z_s12_1.4.txt
Index	Frequency (Hz)	Z' (Ω)	-Z'' (Ω)	Z (Ω)	-Phase (°)	Time (s)
1	1000000	2864.66	1972.48	3478.07	34.5497	15.8244
2	794330	3145.24	1780.55	3614.27	29.5146	17.5515
3	630960	3474.58	1671.14	3855.57	25.6858	19.5435
4	501190	3799	1561.09	4107.24	22.3388	21.4955
5	398110	4132.72	1405.89	4365.3	18.7875	23.6476
6	316230	4376.33	1289.12	4562.24	16.4132	25.2946
7	251190	4497.42	1116.49	4633.93	13.9419	27.2316
8	199530	4686.77	1007.99	4793.94	12.1378	28.9487
9	158490	4841.43	896.917	4923.81	10.4956	30.7557
10	125890	4966.03	789.638	5028.42	9.03484	32.4277
11	100000	5064.69	689.136	5111.36	7.74847	34.2048
12	79433	5144.31	599.308	5179.1	6.64496	35.8118
13	63096	5209.57	519.058	5235.37	5.68991	37.6088
14	50119	5259.56	448.046	5278.61	4.8691	39.0908
15	39811	5303.37	386.548	5317.44	4.16876	40.8379
16	31623	5334.6	333.958	5345.04	3.58217	42.5299
17	25119	5361.95	293.11	5369.96	3.12895	44.662
18	19953	5386.52	258.253	5392.71	2.7449	46.459
19	15849	5407.07	229.295	5411.93	2.42826	48.436
20	12589	5428.74	206.541	5432.66	2.17882	50.0281
21	10000	5447.58	188.647	5450.84	1.98333	51.8851
22	7943.3	5464.62	174.66	5467.41	1.83066	53.5171
23	6309.6	5481.86	164.089	5484.32	1.71453	55.3092
24	5011.9	5496.81	156.968	5499.05	1.6357	57.0662
25	3981.1	5513.36	152.361	5515.46	1.58296	58.7982
26	3162.3	5528.1	150.48	5530.14	1.55926	60.2352
27	2511.9	5545.58	150.418	5547.62	1.55371	61.7523
28	1995.3	5557.79	152.738	5559.89	1.5742	63.4393
29	1584.9	5577.61	157.107	5579.83	1.61344	64.9463
30	1258.9	5595.96	163.078	5598.34	1.66925	66.7234
31	1000	5616.07	171.681	5618.7	1.75096	68.5104
32	794.33	5637.34	182.538	5640.29	1.8546	70.4224
33	630.96	5660.95	195.403	5664.33	1.97693	72.1095
34	501.19	5684.36	210.228	5688.25	2.11803	74.0215
35	398.11	5708.98	226.598	5713.48	2.27296	75.6585
36	316.23	5739.16	247.014	5744.47	2.4645	77.5706
37	251.19	5768.09	269.154	5774.37	2.67163	79.2826
38	199.53	5801.05	294.397	5808.52	2.90521	81.0796
39	158.49	5835.84	323.86	5844.82	3.17637	82.7467
40	125.89	5872.67	357.01	5883.51	3.47883	84.6887
41	100	5914.52	394.101	5927.63	3.81214	86.4907
42	79.433	5963.04	439.689	5979.23	4.21711	88.5128
43	63.096	6019.74	493.858	6039.96	4.69003	90.4598
44	50.119	6084.44	547.822	6109.05	5.14484	92.7218
45	39.811	6156.91	604.105	6186.48	5.60383	94.7689
46	31.623	6238.88	669.401	6274.69	6.12413	97.3559
47	25.119	6330.04	738.086	6372.93	6.65069	99.763
48	19.953	6432.9	808.558	6483.52	7.164	102.265
49	15.849	6543.86	880.48	6602.83	7.66315	104.442
50	12.589	6660.22	960.967	6729.19	8.21023	107.069
51	10	6784.25	1046.86	6864.55	8.77201	109.746
52	7.9433	6918.75	1142.09	7012.38	9.37339	112.838
53	6.3096	7053.16	1248.91	7162.88	10.0414	115.995
54	5.0119	7188.82	1370.98	7318.38	10.7972	119.597
55	3.9811	7332.6	1516.56	7487.79	11.6854	123.504
56	3.1623	7494.18	1693.19	7683.08	12.7313	126.941
57	2.5119	7658.95	1902.18	7891.63	13.9478	130.044
58	1.9953	7835.43	2149.62	8124.95	15.3414	133.336
59	1.5849	8029.29	2450.76	8394.98	16.9736	136.688
60	1.2589	8243.16	2809.2	8708.69	18.8187	140.185
61	1	8472.14	3238.32	9069.94	20.9184	144.137
62	0.79433	8740.29	3770.08	9518.73	23.3327	147.924
63	0.63096	9026.37	4367.28	10027.4	25.8194	152.001
64	0.50119	9352.28	5119.5	10661.8	28.6966	156.203
65	0.39811	9673.35	6043.39	11406	31.9949	161.07
66	0.31623	10068.6	7154.92	12351.9	35.3983	166.202
67	0.25119	10549.7	8564.41	13588.4	39.0703	172.039
68	0.19953	11058.9	10112.1	14985.1	42.4395	178.966
69	0.15849	11627.4	12081.3	16767.7	46.0967	186.454
70	0.12589	12260.2	14598.7	19063.9	49.9759	195.431
71	0.1	13181.1	17577.1	21970.3	53.1337	205.938