File: data/Z_s10_1.3.txt
Index	Frequency (Hz)	Z' (Ω)	-Z'' (Ω)	Z (Ω)	-Phase (°)	Time (s)
1	1000000	3989.94	3691.6	5435.76	42.7759	17.5355
2	794330	4589.24	3328.65	5669.31	35.954	19.1725
3	630960	5361.06	3163.91	6225.05	30.5476	20.7395
4	501190	6032.75	3025.74	6749.02	26.6362	22.5015
5	398110	6818.91	2838.99	7386.3	22.6039	24.0736
6	316230	7325.37	2638.51	7786.07	19.8084	25.8006
7	251190	7628.03	2323.48	7974.05	16.9406	28.6247
8	199530	8030.18	2117.32	8304.63	14.771	30.1367
9	158490	8362.31	1899.85	8575.41	12.7999	31.9037
10	125890	8635.7	1683.53	8798.27	11.0315	33.6358
11	100000	8854.35	1478.01	8976.87	9.47671	35.2728
12	79433	9032.95	1289.6	9124.54	8.12501	36.9948
13	63096	9175.34	1117.78	9243.18	6.94578	38.5968
14	50119	9295.23	965.788	9345.27	5.93183	40.3289
15	39811	9392.37	830.96	9429.06	5.0559	41.9309
16	31623	9457.45	712.562	9484.25	4.30876	43.7829
17	25119	9515.55	622.574	9535.9	3.74336	45.415
18	19953	9569.18	545.174	9584.7	3.26072	47.192
19	15849	9618.26	479.96	9630.23	2.85674	48.839
20	12589	9663.43	426.067	9672.82	2.52457	50.6011
21	10000	9696.09	382.131	9703.62	2.2569	52.2881
22	7943.3	9728.4	348.323	9734.63	2.05058	55.9542
23	6309.6	9763.85	319.289	9769.07	1.87297	57.6412
24	5011.9	9794.55	297.165	9799.06	1.73781	59.3632
25	3981.1	9822.89	280.695	9826.9	1.63682	61.1353
26	3162.3	9857.62	268.433	9861.28	1.55983	62.8323
27	2511.9	9881.13	259.049	9884.52	1.50175	64.5143
28	1995.3	9911.82	252.91	9915.05	1.46164	66.2614
29	1584.9	9941.9	251.2	9945.07	1.44738	67.8134
30	1258.9	9971.22	249.885	9974.35	1.43557	69.4954
31	1000	9997.66	254.538	10000.9	1.45842	71.3574
32	794.33	10033.1	260.355	10036.5	1.48646	73.0595
33	630.96	10064.8	269.106	10068.4	1.53157	74.5715
34	501.19	10094.3	281.686	10098.2	1.59845	76.4735
35	398.11	10124.7	296.448	10129.1	1.67712	77.8956
36	316.23	10164.1	314.867	10169	1.77435	79.6076
37	251.19	10197.3	339.356	10203	1.90604	81.2696
38	199.53	10243.1	365.863	10249.6	2.04563	82.8317
39	158.49	10279.6	398.08	10287.3	2.21769	84.5087
40	125.89	10323.3	434.193	10332.4	2.40841	86.2257
41	100	10371.7	478.8	10382.8	2.64312	87.7228
42	79.433	10436.5	528.753	10449.9	2.90034	89.5798
43	63.096	10489.4	585.711	10505.8	3.19598	91.1918
44	50.119	10570.8	658.909	10591.3	3.56681	93.0889
45	39.811	10658.1	716.861	10682.2	3.84791	95.4159
46	31.623	10754.6	793.145	10783.9	4.21787	97.7229
47	25.119	10858.2	878.998	10893.7	4.62815	99.78
48	19.953	10970.7	971.265	11013.6	5.05935	101.987
49	15.849	11106.6	1063.48	11157.4	5.46951	104.359
50	12.589	11234.8	1169.58	11295.5	5.94328	106.391
51	10	11388.6	1290.69	11461.5	6.46585	108.753
52	7.9433	11537.3	1424.18	11624.9	7.03706	111.21
53	6.3096	11715.2	1565.25	11819.3	7.61013	113.742
54	5.0119	11888.1	1734.88	12014	8.30282	116.159
55	3.9811	12082.3	1925.9	12234.8	9.05666	118.816
56	3.1623	12281.6	2154.03	12469.1	9.94775	121.433
57	2.5119	12494.8	2416.2	12726.3	10.9445	124.34
58	1.9953	12728.2	2727.72	13017.2	12.0958	127.177
59	1.5849	12986.4	3105.45	13352.6	13.4486	130.035
60	1.2589	13242.6	3552.15	13710.7	15.0154	132.947
61	1	13546.8	4094.77	14152.1	16.8185	138.441
62	0.79433	13891.5	4741.89	14678.6	18.8474	141.663
63	0.63096	14228.6	5510.64	15258.5	21.1711	145.485
64	0.50119	14585.9	6494.27	15966.3	24.0007	149.427
65	0.39811	15077.4	7704.52	16931.8	27.0669	154.089
66	0.31623	15593.2	9160.15	18084.7	30.4319	159.211
67	0.25119	16182.8	10813.9	19463.4	33.7521	165.263
68	0.19953	16841.9	13046.7	21304.1	37.7633	172.065
69	0.15849	17636.9	15586.6	23537.3	41.4686	179.637
70	0.12589	18435	18461.9	26090	45.0419	197.692
71	0.1	19518.8	22265.2	29609.5	48.7607	219.031