File: data/Z_s11_1.5.txt
Index	Frequency (Hz)	Z' (Ω)	-Z'' (Ω)	Z (Ω)	-Phase (°)	Time (s)
1	1000000	2813.18	2133.56	3530.73	37.1772	20.2325
2	794330	3121.55	1916.63	3663	31.5499	21.9395
3	630960	3543.36	1859.36	4001.57	27.6881	23.6966
4	501190	3906.84	1740.78	4277.12	24.0164	25.4136
5	398110	4285.52	1596.07	4573.09	20.427	27.4106
6	316230	4563.76	1459.12	4791.33	17.73	29.1427
7	251190	4710.32	1267.44	4877.86	15.0603	30.9247
8	199530	4928.55	1142.94	5059.34	13.0563	32.6867
9	158490	5100.46	1014.63	5200.4	11.251	34.3888
10	125890	5238.08	890.52	5313.24	9.64854	35.9308
11	100000	5352.28	775.104	5408.11	8.24014	37.8278
12	79433	5441.41	670.741	5482.6	7.02717	39.4399
13	63096	5513.63	577.848	5543.83	5.98296	41.2769
14	50119	5567.12	495.953	5589.17	5.09081	42.9739
15	39811	5614.87	424.915	5630.93	4.3277	44.881
16	31623	5648.53	363.742	5660.23	3.68453	46.573
17	25119	5677.77	316.168	5686.57	3.18724	48.39
18	19953	5705.29	276.397	5711.98	2.77357	49.982
19	15849	5727.55	242.969	5732.71	2.42909	51.6491
20	12589	5743	215.637	5747.05	2.15031	53.4211
21	10000	5761.57	194.12	5764.84	1.9297	55.0431
22	7943.3	5781.09	176.668	5783.79	1.75039	56.8902
23	6309.6	5795.09	163.581	5797.4	1.61689	58.5522
24	5011.9	5811.73	153.232	5813.75	1.51031	60.1942
25	3981.1	5824.81	145.642	5826.63	1.43231	61.8163
26	3162.3	5840.17	140.189	5841.85	1.37508	63.4633
27	2511.9	5853.68	137.378	5855.29	1.34441	65.2303
28	1995.3	5871.72	135.644	5873.29	1.32337	66.9374
29	1584.9	5886.7	136.09	5888.28	1.32434	68.4394
30	1258.9	5902.4	138.435	5904.03	1.34357	70.1264
31	1000	5915.94	141.972	5917.65	1.37473	71.7785
32	794.33	5931.99	147.133	5933.81	1.42084	73.6855
33	630.96	5952.95	154.396	5954.96	1.48569	75.2275
34	501.19	5969.23	163.163	5971.46	1.56573	77.1195
35	398.11	5989.71	174.959	5992.27	1.67313	78.8516
36	316.23	6010.23	188.143	6013.17	1.793	80.7336
37	251.19	6027.75	203.963	6031.2	1.938	82.3556
38	199.53	6051.95	223.068	6056.06	2.1109	84.0177
39	158.49	6078.01	246.295	6083	2.32049	85.7397
40	125.89	6102.5	272.559	6108.58	2.55734	87.4917
41	100	6130.29	305.428	6137.89	2.85228	89.3488
42	79.433	6166.86	343.486	6176.42	3.18801	91.0208
43	63.096	6207.42	381.611	6219.14	3.51792	92.9228
44	50.119	6256.43	438.41	6271.78	4.00836	94.9199
45	39.811	6308.35	490.824	6327.42	4.44896	96.7469
46	31.623	6369.24	546.81	6392.67	4.90691	98.924
47	25.119	6444.74	615.793	6474.1	5.45802	100.891
48	19.953	6525.98	686.367	6561.97	6.00399	103.328
49	15.849	6620.94	763.924	6664.87	6.58168	105.42
50	12.589	6719.01	840.125	6771.33	7.1271	107.897
51	10	6828.99	925.218	6891.38	7.71567	111.114
52	7.9433	6949.57	1016.58	7023.53	8.32214	113.916
53	6.3096	7066.65	1118.24	7154.57	8.99202	116.518
54	5.0119	7198.19	1232.84	7303	9.71882	119.21
55	3.9811	7333.31	1366.5	7459.54	10.5555	122.132
56	3.1623	7477.02	1522	7630.35	11.5058	124.989
57	2.5119	7626.87	1704.89	7815.1	12.6006	127.826
58	1.9953	7791.45	1923.2	8025.3	13.8654	130.594
59	1.5849	7967.7	2184.12	8261.64	15.3294	133.826
60	1.2589	8150.34	2490.88	8522.47	16.994	137.078
61	1	8349.3	2880.81	8832.32	19.0363	142.767
62	0.79433	8578.81	3346.4	9208.39	21.3096	146.099
63	0.63096	8818.22	3889.3	9637.83	23.8	149.926
64	0.50119	9051.57	4596	10151.6	26.9195	154.173
65	0.39811	9323.87	5398.77	10774.1	30.072	158.82
66	0.31623	9619.76	6443.1	11578.1	33.8133	165.022
67	0.25119	10034.2	7752.82	12680.4	37.691	170.644
68	0.19953	10422.4	9330.75	13988.9	41.8367	176.936
69	0.15849	10893.7	11227.3	15643.7	45.8641	184.444
70	0.12589	11512.4	13470.5	17719.7	49.4815	193.081
71	0.1	11981.6	16258.2	20196.2	53.6113	203.828