File: data/Z_s11_1.4.txt
Index	Frequency (Hz)	Z' (Ω)	-Z'' (Ω)	Z (Ω)	-Phase (°)	Time (s)
1	1000000	2857.51	2090.36	3540.48	36.1866	21.0495
2	794330	3200.78	1911.69	3728.21	30.848	22.7815
3	630960	3542.3	1798.68	3972.8	26.9202	24.5886
4	501190	3891.88	1685.59	4241.22	23.4176	26.5156
5	398110	4267.68	1536.76	4535.93	19.8036	28.2276
6	316230	4536.54	1410.91	4750.88	17.2762	29.9897
7	251190	4676.18	1233.13	4836.04	14.7728	31.6117
8	199530	4887.86	1115.05	5013.43	12.8507	33.4637
9	158490	5058.91	992.143	5155.28	11.0959	35.0558
10	125890	5199.42	872.596	5272.14	9.52691	36.8928
11	100000	5310.49	760.48	5364.66	8.14954	38.4948
12	79433	5399.05	658.795	5439.09	6.95688	40.2469
13	63096	5470.67	568.231	5500.11	5.92996	41.8439
14	50119	5527.47	488.534	5549.01	5.05085	43.6559
15	39811	5571.3	417.735	5586.94	4.288	45.2779
16	31623	5606.55	358.57	5618	3.6594	47.105
17	25119	5634.91	312.413	5643.57	3.17336	48.702
18	19953	5661.5	272.957	5668.08	2.76025	50.654
19	15849	5684.39	240.448	5689.47	2.42215	52.2511
20	12589	5703.64	213.556	5707.63	2.14427	54.0281
21	10000	5721.94	191.924	5725.15	1.92109	55.7051
22	7943.3	5739.65	175.854	5742.35	1.7549	57.4922
23	6309.6	5757.82	163.017	5760.13	1.62174	59.0842
24	5011.9	5770.61	152.833	5772.63	1.51711	60.8912
25	3981.1	5785.44	146.08	5787.29	1.44639	62.7083
26	3162.3	5801.97	141.208	5803.68	1.39418	64.5803
27	2511.9	5816.02	137.952	5817.66	1.35876	66.2573
28	1995.3	5833.82	137.383	5835.44	1.34903	67.9994
29	1584.9	5849.88	138.241	5851.52	1.35373	69.7064
30	1258.9	5866.22	140.358	5867.9	1.37063	71.4784
31	1000	5881.02	144.963	5882.81	1.41201	73.1405
32	794.33	5898.56	151.323	5900.5	1.46956	74.8575
33	630.96	5916.94	158.653	5919.06	1.53593	76.4895
34	501.19	5939.4	168.271	5941.78	1.62283	78.1316
35	398.11	5958.05	179.653	5960.76	1.72711	79.8486
36	316.23	5980.97	194.314	5984.13	1.86081	81.5156
37	251.19	6001.35	210.789	6005.05	2.01161	83.4076
38	199.53	6022.89	230.401	6027.3	2.19074	84.9247
39	158.49	6049.23	254.381	6054.58	2.40797	86.5917
40	125.89	6078.94	283.524	6085.55	2.67036	88.2437
41	100	6109.06	315.346	6117.19	2.95495	90.0258
42	79.433	6146.48	353.096	6156.61	3.28785	91.6778
43	63.096	6184.33	397.999	6197.12	3.68226	93.6648
44	50.119	6237.1	443.52	6252.85	4.06746	95.6119
45	39.811	6297.47	503.447	6317.56	4.57075	97.4439
46	31.623	6360.21	563.046	6385.08	5.059	99.3659
47	25.119	6434.62	631.069	6465.49	5.60132	101.198
48	19.953	6519.18	704.095	6557.1	6.16425	103.385
49	15.849	6618.38	780.878	6664.29	6.729	105.632
50	12.589	6722.57	861	6777.48	7.29848	108.264
51	10	6833.44	947.188	6898.77	7.89153	110.761
52	7.9433	6953.9	1041.13	7031.4	8.51498	113.333
53	6.3096	7078.76	1146.1	7170.94	9.19677	116.145
54	5.0119	7209.68	1266.16	7320.02	9.96065	118.817
55	3.9811	7353.3	1403.42	7486.03	10.8053	121.709
56	3.1623	7504.69	1563.47	7665.82	11.7682	124.491
57	2.5119	7662.65	1751.43	7860.27	12.8747	127.198
58	1.9953	7827.43	1978.8	8073.68	14.1873	130.311
59	1.5849	8010.49	2247.46	8319.8	15.6723	133.418
60	1.2589	8198.97	2568.35	8591.83	17.3933	136.735
61	1	8403.91	2962.1	8910.65	19.4159	140.497
62	0.79433	8639.61	3446.37	9301.63	21.7472	144.079
63	0.63096	8892.75	4011.12	9755.51	24.278	147.871
64	0.50119	9150.34	4722.18	10297	27.2967	151.993
65	0.39811	9417.89	5569.87	10941.7	30.6007	156.76
66	0.31623	9738.22	6624.43	11777.8	34.2255	161.887
67	0.25119	10101.3	7991.3	12880.1	38.3481	167.749
68	0.19953	10542.8	9507.12	14196.3	42.043	174.351
69	0.15849	11047.2	11432.5	15897.9	45.982	182.088
70	0.12589	11550.5	13844.5	18030	50.1617	191.156
71	0.1	12267	16942.9	20917.5	54.0946	201.663