File: data/Z_s12_1.txt
Index	Frequency (Hz)	Z' (Ω)	-Z'' (Ω)	Z (Ω)	-Phase (°)	Time (s)
1	1000000	2348.33	1911.98	3028.25	39.1519	24.4356
2	794330	2725.81	1685.57	3204.87	31.7317	27.4776
3	630960	3084.06	1695.6	3519.45	28.8017	30.1547
4	501190	3429.17	1567.19	3770.32	24.5612	32.4767
5	398110	3743.48	1372.95	3987.31	20.141	35.2988
6	316230	3965.15	1222.8	4149.42	17.1391	38.1908
7	251190	4065.97	1037.4	4196.23	14.3132	41.0329
8	199530	4228.84	922.535	4328.29	12.3065	42.9399
9	158490	4356.12	812.214	4431.19	10.5617	45.182
10	125890	4461.71	710.99	4518	9.05418	47.879
11	100000	4544.45	618.744	4586.38	7.75336	50.1561
12	79433	4616.17	537.694	4647.38	6.6439	52.5031
13	63096	4670.51	465.345	4693.64	5.68986	56.4202
14	50119	4717.85	402.718	4735	4.87897	58.6422
15	39811	4755.74	347.877	4768.44	4.18368	60.8293
16	31623	4785.1	301.465	4794.58	3.60492	62.9813
17	25119	4811.1	265.326	4818.41	3.15659	65.6583
18	19953	4833.78	235.376	4839.51	2.78775	67.9504
19	15849	4855.34	210.553	4859.9	2.48309	70.1574
20	12589	4874.3	190.907	4878.03	2.2429	71.9345
21	10000	4893.58	175.835	4896.74	2.05785	74.1815
22	7943.3	4909.9	164.678	4912.66	1.92097	76.5035
23	6309.6	4926.9	157.128	4929.4	1.82665	78.6606
24	5011.9	4944.72	152.221	4947.06	1.76327	81.3226
25	3981.1	4960.6	150.175	4962.87	1.73401	83.8747
26	3162.3	4977.27	150.339	4979.54	1.7301	86.1717
27	2511.9	4997.09	153.03	4999.44	1.75406	88.7738
28	1995.3	5014.58	157.969	5017.07	1.80433	91.5658
29	1584.9	5034.24	164.822	5036.94	1.8752	95.6479
30	1258.9	5056.81	173.495	5059.78	1.965	97.4749
31	1000	5078.36	184.743	5081.72	2.08341	100.092
32	794.33	5102.59	198.377	5106.45	2.22641	102.659
33	630.96	5130.96	214.09	5135.42	2.38928	105.176
34	501.19	5155.93	231.99	5161.15	2.57627	108.238
35	398.11	5187.15	251.92	5193.26	2.78046	110.59
36	316.23	5221.39	274.963	5228.63	3.01447	113.227
37	251.19	5259.17	300.315	5267.74	3.26821	116.064
38	199.53	5298.98	327.414	5309.09	3.5357	118.341
39	158.49	5341.04	358.006	5353.03	3.83475	120.863
40	125.89	5387.3	391.512	5401.51	4.15656	123.185
41	100	5439.53	429.882	5456.49	4.51865	125.912
42	79.433	5493.42	472.886	5513.74	4.92002	128.725
43	63.096	5561.17	524.971	5585.89	5.3927	131.522
44	50.119	5625.33	574.762	5654.62	5.83389	134.504
45	39.811	5708.05	631.776	5742.91	6.31588	137.526
46	31.623	5797.79	695.583	5839.37	6.84129	140.588
47	25.119	5895.69	759.916	5944.46	7.34456	145.45
48	19.953	6002.69	831.104	6059.95	7.88278	149.197
49	15.849	6115.52	904.007	6181.97	8.40867	153.879
50	12.589	6237.45	983.049	6314.44	8.95639	157.161
51	10	6362.2	1069.35	6451.44	9.54099	160.743
52	7.9433	6489.66	1164.57	6593.32	10.1734	164.35
53	6.3096	6631.65	1277.27	6753.53	10.9018	167.307
54	5.0119	6771.7	1407.22	6916.37	11.7395	170.789
55	3.9811	6925.68	1562.93	7099.85	12.717	174.276
56	3.1623	7085.81	1749.03	7298.48	13.8655	177.818
57	2.5119	7256.77	1972.11	7519.97	15.2036	181.445
58	1.9953	7447.7	2234.79	7775.76	16.7026	185.328
59	1.5849	7649.99	2551.65	8064.32	18.4461	189.285
60	1.2589	7883.71	2932.57	8411.47	20.4042	192.937
61	1	8130.98	3389.49	8809.17	22.6294	197.869
62	0.79433	8415.59	3934.58	9289.94	25.0577	203.241
63	0.63096	8728.47	4599.36	9866.12	27.7864	208.743
64	0.50119	9079.51	5357.44	10542.3	30.5431	213.61
65	0.39811	9499.45	6322.97	11411.4	33.6483	219.437
66	0.31623	9947.99	7456.63	12432.4	36.8538	225.659
67	0.25119	10440.7	8839.78	13680.2	40.2536	232.631
68	0.19953	11003.8	10547.5	15242.5	43.787	240.474
69	0.15849	11768.6	12546.2	17202	46.8317	249.796
70	0.12589	12497	15042.1	19556.1	50.2801	259.933
71	0.1	13502.1	18026.8	22522.7	53.1668	271.055