File: data/Z_s10_1.5.txt
Index	Frequency (Hz)	Z' (Ω)	-Z'' (Ω)	Z (Ω)	-Phase (°)	Time (s)
1	1000000	3899.98	3941.58	5544.9	45.3039	21.7735
2	794330	4612.81	3666.29	5892.34	38.4779	23.5606
3	630960	5460.86	3508.45	6490.78	32.7196	25.4526
4	501190	6226.5	3348.34	7069.71	28.2694	27.2996
5	398110	7122.21	3184.64	7801.78	24.0914	29.0817
6	316230	7699.25	2961.37	8249.14	21.0383	30.7487
7	251190	8054.89	2612.73	8468.04	17.9713	33.7427
8	199530	8506.41	2379.49	8832.95	15.6279	35.4298
9	158490	8878.53	2132.97	9131.15	13.5087	37.0568
10	125890	9178.98	1888.68	9371.28	11.627	38.9938
11	100000	9426.49	1656.16	9570.87	9.96474	40.7109
12	79433	9626.76	1444.81	9734.57	8.53537	42.6079
13	63096	9784.88	1251.88	9864.64	7.29082	44.3899
14	50119	9924.33	1081.21	9983.06	6.21758	46.362
15	39811	10026.5	927.682	10069.3	5.28613	47.979
16	31623	10107.6	796.604	10138.9	4.50632	49.766
17	25119	10170.5	693.865	10194.1	3.90287	51.3881
18	19953	10233.9	607.151	10251.9	3.39523	53.1351
19	15849	10287.5	533.617	10301.4	2.96929	54.8521
20	12589	10336.9	472.121	10347.7	2.61507	56.7442
21	10000	10380.1	419.89	10388.6	2.31643	61.1103
22	7943.3	10419	381.997	10426	2.09973	62.6423
23	6309.6	10448	349.307	10453.8	1.91486	64.5193
24	5011.9	10482.8	323.314	10487.8	1.76657	66.1113
25	3981.1	10517	302.802	10521.4	1.64918	67.9834
26	3162.3	10552.3	288.477	10556.2	1.56596	69.6754
27	2511.9	10577.4	275.762	10581	1.49341	71.5074
28	1995.3	10605.2	270.091	10608.7	1.45887	73.1795
29	1584.9	10637.5	265.672	10640.8	1.43067	74.8465
30	1258.9	10674.9	263.702	10678.2	1.41508	76.4335
31	1000	10699.5	265.591	10702.8	1.42195	78.3856
32	794.33	10733.5	271.157	10736.9	1.44714	80.5476
33	630.96	10767.3	278.91	10770.9	1.48382	82.3146
34	501.19	10803.3	289.489	10807.2	1.53494	84.0767
35	398.11	10832.4	303.538	10836.7	1.60508	85.9187
36	316.23	10869.5	324.392	10874.3	1.70945	87.5757
37	251.19	10906.4	345.063	10911.9	1.81214	89.3928
38	199.53	10952.2	374.393	10958.6	1.95786	90.9398
39	158.49	10994	404.63	11001.4	2.1078	92.7818
40	125.89	11043.8	445.312	11052.8	2.30905	94.5489
41	100	11093	488.983	11103.8	2.52398	96.4859
42	79.433	11152.5	538.808	11165.5	2.76597	98.1779
43	63.096	11210	615.121	11226.8	3.14082	100.17
44	50.119	11307.6	660.145	11326.8	3.34118	102.077
45	39.811	11376.7	734.645	11400.4	3.69472	104.164
46	31.623	11466	809.767	11494.5	4.03972	106.146
47	25.119	11576.8	900.414	11611.8	4.44736	108.303
48	19.953	11698.6	999.868	11741.2	4.88516	110.545
49	15.849	11835.8	1105.04	11887.3	5.33388	112.672
50	12.589	11974.9	1216.72	12036.6	5.80167	115.849
51	10	12118.6	1337.97	12192.3	6.30028	118.116
52	7.9433	12282.4	1471.02	12370.2	6.8296	120.678
53	6.3096	12457.4	1622.88	12562.7	7.42237	123.1
54	5.0119	12639.5	1803.81	12767.5	8.122	125.822
55	3.9811	12839.3	2009.11	12995.6	8.89358	128.524
56	3.1623	13047.7	2237.59	13238.2	9.73114	131.207
57	2.5119	13276.9	2520.75	13514	10.7503	134.474
58	1.9953	13529.3	2849.78	13826.2	11.8948	137.201
59	1.5849	13798.2	3244.94	14174.6	13.2338	139.953
60	1.2589	14076	3742.14	14565	14.8878	143
61	1	14416	4267.17	15034.3	16.4889	148.744
62	0.79433	14772.2	4923.87	15571.2	18.4342	152.091
63	0.63096	15131.7	5727.9	16179.5	20.7334	155.918
64	0.50119	15556.9	6716.92	16945.1	23.3529	160.295
65	0.39811	15966.1	7913.76	17819.8	26.3658	164.932
66	0.31623	16518.9	9330.24	18971.7	29.4587	170.319
67	0.25119	17105.6	11246.9	20471.8	33.3249	176.101
68	0.19953	17800.7	13264	22199.1	36.6912	182.704
69	0.15849	18714.3	15834	24514.1	40.2341	190.671
70	0.12589	19537.7	18925.4	27200.9	44.088	209.66
71	0.1	20820.1	22647.4	30763.3	47.4072	220.167