File: data/Z_s14_1.2.txt
Index	Frequency (Hz)	Z' (Ω)	-Z'' (Ω)	Z (Ω)	-Phase (°)	Time (s)
1	1000000	3263.74	2467.44	4091.49	37.0899	21.4635
2	794330	3639	2245.08	4275.83	31.6725	23.2656
3	630960	4080.14	2093.27	4585.77	27.1596	24.9876
4	501190	4503.53	1958.55	4910.98	23.5039	26.9196
5	398110	4938.66	1793.6	5254.27	19.9597	28.7317
6	316230	5252.03	1646.12	5503.95	17.4023	30.4137
7	251190	5416.03	1428.16	5601.16	14.7721	32.1107
8	199530	5663.28	1292.14	5808.82	12.8527	33.8478
9	158490	5861.8	1150.76	5973.68	11.1068	35.5698
10	125890	6023	1012.77	6107.55	9.54505	37.3218
11	100000	6151.06	883.268	6214.15	8.17159	39.1989
12	79433	6255.57	766.562	6302.36	6.98624	40.9709
13	63096	6336.93	661.608	6371.38	5.96038	42.6479
14	50119	6404.9	569.505	6430.17	5.08121	44.3849
15	39811	6456.56	488.495	6475.02	4.32668	45.992
16	31623	6496.32	419.264	6509.83	3.69268	47.789
17	25119	6530.79	365.175	6541	3.20041	49.451
18	19953	6561.54	319.56	6569.32	2.78822	51.2081
19	15849	6588.14	281.33	6594.14	2.44519	52.8151
20	12589	6612.59	250.375	6617.33	2.16838	54.6671
21	10000	6632.46	225.308	6636.29	1.94562	56.2592
22	7943.3	6654.29	205.578	6657.46	1.76954	58.0362
23	6309.6	6672.93	190.101	6675.64	1.63182	59.7132
24	5011.9	6689.36	178.64	6691.75	1.52973	61.5403
25	3981.1	6709.11	170.412	6711.27	1.455	63.0873
26	3162.3	6728.02	164.534	6730.03	1.4009	64.8893
27	2511.9	6745.21	160.953	6747.13	1.36692	66.4864
28	1995.3	6763.57	160.133	6765.46	1.35627	68.4034
29	1584.9	6781.27	161.162	6783.18	1.36143	69.9854
30	1258.9	6800.65	163.758	6802.62	1.3794	71.7625
31	1000	6821.7	169.007	6823.79	1.41921	73.5345
32	794.33	6842.08	176.208	6844.35	1.47525	75.2215
33	630.96	6863.44	185.147	6865.94	1.54523	76.9086
34	501.19	6884.25	195.797	6887.03	1.62913	78.5656
35	398.11	6910.37	209.069	6913.53	1.73292	80.2026
36	316.23	6934.12	225.952	6937.8	1.86635	81.9446
37	251.19	6956.42	245.048	6960.73	2.01748	83.7817
38	199.53	6988.38	268.122	6993.52	2.19718	85.2937
39	158.49	7015.53	295.564	7021.76	2.41244	87.0607
40	125.89	7052.07	328.551	7059.72	2.66744	89.0178
41	100	7088.25	365.424	7097.66	2.95118	90.7448
42	79.433	7136.36	409.275	7148.08	3.28236	92.3218
43	63.096	7178.75	456.929	7193.28	3.64197	94.1739
44	50.119	7241.61	514.02	7259.83	4.06012	96.1559
45	39.811	7314.35	569.689	7336.5	4.45358	98.0079
46	31.623	7393.89	627.398	7420.46	4.85013	99.895
47	25.119	7480.49	694.514	7512.67	5.30432	101.847
48	19.953	7575.45	766.328	7614.11	5.77636	104.089
49	15.849	7681.37	838.008	7726.95	6.22613	106.501
50	12.589	7795.32	916.353	7849	6.70445	109.858
51	10	7911.2	996.9	7973.76	7.18206	112.48
52	7.9433	8038.17	1085.78	8111.17	7.69285	115.207
53	6.3096	8171.41	1190.45	8257.67	8.28879	117.824
54	5.0119	8306.64	1306.9	8408.82	8.94116	120.591
55	3.9811	8453.51	1441.74	8575.57	9.6786	123.503
56	3.1623	8604.05	1603.3	8752.16	10.5556	126.38
57	2.5119	8767.64	1788.89	8948.28	11.532	129.328
58	1.9953	8931.23	2015.96	9155.92	12.7196	132.205
59	1.5849	9113.12	2285.83	9395.42	14.0809	135.257
60	1.2589	9310.58	2611.62	9669.93	15.6688	138.559
61	1	9504.41	3027.6	9974.97	17.6691	142.271
62	0.79433	9754.73	3514.91	10368.7	19.8156	145.703
63	0.63096	9985.62	4072.98	10784.3	22.1898	149.35
64	0.50119	10255.1	4818.15	11330.6	25.1655	153.657
65	0.39811	10516.2	5693.08	11958.3	28.4294	158.394
66	0.31623	10859.7	6784.56	12804.8	31.995	163.546
67	0.25119	11249.8	8201.12	13921.8	36.0922	169.288
68	0.19953	11661.1	9778.1	15218.2	39.9806	175.915
69	0.15849	12187.6	11733.9	16918.1	43.9135	183.593
70	0.12589	12767.7	14256.8	19138.2	48.154	192.49
71	0.1	13617.5	17297.7	22014.7	51.7886	203.117