File: data/Z_s13_1.2.txt
Index	Frequency (Hz)	Z' (Ω)	-Z'' (Ω)	Z (Ω)	-Phase (°)	Time (s)
1	1000000	4553.92	4750.41	6580.62	46.2098	21.3335
2	794330	5479.7	4309.16	6971.08	38.181	22.9405
3	630960	6453.19	4184.97	7691.4	32.9639	24.4776
4	501190	7377.79	4057.73	8420.03	28.8105	26.2946
5	398110	8533.27	3964.22	9409.13	24.9177	27.8516
6	316230	9272.55	3744.73	10000.2	21.9914	29.5987
7	251190	9752.97	3359.31	10315.3	19.0057	31.1857
8	199530	10351.7	3104.45	10807.2	16.6939	32.8927
9	158490	10863.1	2821.91	11223.6	14.5619	34.4248
10	125890	11283.5	2528.57	11563.3	12.631	36.2318
11	100000	11634	2240.89	11847.9	10.9025	37.9938
12	79433	11924.7	1972.91	12086.8	9.39432	39.7459
13	63096	12159.6	1721.89	12280.9	8.05991	41.4129
14	50119	12354.8	1493.48	12444.8	6.8926	43.2499
15	39811	12517.4	1284.77	12583.2	5.86023	44.9119
16	31623	12630.3	1102.31	12678.3	4.98782	46.524
17	25119	12733.9	958.265	12769.9	4.30357	48.276
18	19953	12818.7	832.482	12845.7	3.71573	49.858
19	15849	12892.2	725.251	12912.6	3.21979	51.5351
20	12589	12952.6	634.336	12968.2	2.80374	53.1271
21	10000	12980.1	547.427	12991.6	2.41498	54.9241
22	7943.3	13036.9	489.13	13046.1	2.14867	56.5312
23	6309.6	13084.4	440.927	13091.8	1.93006	58.3932
24	5011.9	13128.5	400.847	13134.6	1.74884	59.9852
25	3981.1	13168.8	367.988	13173.9	1.60066	61.8273
26	3162.3	13205.6	340.529	13210	1.47715	63.3743
27	2511.9	13248.5	320.117	13252.4	1.38414	65.1813
28	1995.3	13278.6	302.875	13282.1	1.30665	66.7583
29	1584.9	13310.4	290.186	13313.6	1.24893	68.4904
30	1258.9	13348.2	282.033	13351.2	1.21042	70.1324
31	1000	13381.9	275.166	13384.8	1.17798	72.0744
32	794.33	13408.5	271.829	13411.2	1.1614	73.7865
33	630.96	13446.5	272.287	13449.2	1.16006	75.6035
34	501.19	13474.2	275.688	13477	1.17213	77.2005
35	398.11	13510.8	282.536	13513.7	1.19799	78.9776
36	316.23	13550.5	291.139	13553.6	1.23084	80.5996
37	251.19	13578.1	305.783	13581.5	1.2901	82.4616
38	199.53	13618.1	323.375	13621.9	1.36029	84.1087
39	158.49	13651	344.13	13655.3	1.44407	85.9607
40	125.89	13695.2	369.636	13700.2	1.54605	87.7027
41	100	13733.3	399.332	13739.2	1.66555	89.3698
42	79.433	13785.3	439.964	13792.3	1.828	91.2418
43	63.096	13836.1	470.328	13844.1	1.94689	93.0388
44	50.119	13900.5	536.837	13910.8	2.21167	94.9509
45	39.811	13961.7	585.451	13974	2.40115	96.7479
46	31.623	14034.1	647.583	14049	2.64195	98.5449
47	25.119	14122.7	709.397	14140.5	2.87561	100.512
48	19.953	14227	791.404	14249	3.18391	102.729
49	15.849	14325.5	872.228	14352.1	3.48422	105.271
50	12.589	14442	956.511	14473.6	3.78924	107.438
51	10	14565	1047.17	14602.6	4.11227	110.505
52	7.9433	14693.4	1151.79	14738.5	4.48216	113.267
53	6.3096	14841.3	1261.35	14894.8	4.85783	116.039
54	5.0119	14987.7	1389.42	15052	5.2964	118.931
55	3.9811	15151.2	1533.58	15228.6	5.7797	121.578
56	3.1623	15327.8	1699.74	15421.8	6.32781	124.385
57	2.5119	15515.3	1895.79	15630.7	6.96635	127.392
58	1.9953	15718.8	2123.19	15861.6	7.69257	130.46
59	1.5849	15931	2391.83	16109.5	8.53845	133.617
60	1.2589	16199.8	2704.71	16424	9.47866	136.869
61	1	16428.1	3076.88	16713.7	10.6083	140.586
62	0.79433	16710.5	3530.95	17079.5	11.9311	144.373
63	0.63096	17025.2	4058.08	17502.2	13.4067	148.2
64	0.50119	17303.8	4705.13	17932.1	15.2117	152.352
65	0.39811	17686.3	5442.01	18504.6	17.103	156.814
66	0.31623	18073.3	6382.18	19167	19.4495	161.911
67	0.25119	18519.9	7646.25	20036.2	22.4341	167.743
68	0.19953	19018.1	8913.66	21003.4	25.1121	174.235
69	0.15849	19604.6	10565.6	22270.5	28.3217	181.882
70	0.12589	20258.6	12649.3	23883.4	31.9803	190.935
71	0.1	21295.7	15122.5	26119	35.3793	201.432