File: data/Z_s11_1.2.txt
Index	Frequency (Hz)	Z' (Ω)	-Z'' (Ω)	Z (Ω)	-Phase (°)	Time (s)
1	1000000	2703.79	1842.2	3271.72	34.2682	20.0735
2	794330	2981.21	1691.52	3427.66	29.5704	21.7955
3	630960	3282.46	1569.44	3638.37	25.5539	23.5626
4	501190	3570.53	1475.11	3863.25	22.4472	25.4946
5	398110	3884.03	1328.61	4104.99	18.8843	27.1266
6	316230	4115.23	1217.38	4291.52	16.4794	28.8137
7	251190	4229.56	1050.32	4358.02	13.946	30.4857
8	199530	4409.01	947.447	4509.66	12.1278	32.2477
9	158490	4556.59	842.213	4633.78	10.472	33.8698
10	125890	4671.13	739.454	4729.29	8.99546	35.5968
11	100000	4765.2	644.149	4808.54	7.69845	37.2088
12	79433	4839.43	558.033	4871.5	6.5777	38.9358
13	63096	4898.55	481.136	4922.12	5.60961	40.4179
14	50119	4945.72	413.611	4962.99	4.78052	42.2149
15	39811	4983.57	354.983	4996.19	4.07434	43.8419
16	31623	5015.03	305.492	5024.32	3.48588	45.664
17	25119	5040	266.514	5047.05	3.02696	47.336
18	19953	5062.63	233.677	5068.02	2.64274	49.113
19	15849	5079.29	206.86	5083.5	2.33215	50.7401
20	12589	5096.9	185.053	5100.26	2.07932	52.5221
21	10000	5115.18	168.021	5117.94	1.88135	54.2541
22	7943.3	5128.22	154.608	5130.56	1.72686	55.8412
23	6309.6	5141.13	144.68	5143.17	1.61198	57.6382
24	5011.9	5155.82	137.49	5157.65	1.52754	59.4802
25	3981.1	5170.73	132.051	5172.42	1.46291	61.1023
26	3162.3	5184.95	129.473	5186.57	1.43043	62.6993
27	2511.9	5199.78	128.319	5201.36	1.41364	64.6113
28	1995.3	5214.09	128.602	5215.67	1.41287	66.1834
29	1584.9	5229.14	130.84	5230.78	1.43331	67.9254
30	1258.9	5244.45	134.889	5246.19	1.47334	69.4474
31	1000	5260.1	139.895	5261.96	1.52345	71.1594
32	794.33	5274.91	146.955	5276.96	1.5958	72.8065
33	630.96	5296.75	155.8	5299.04	1.68483	74.5535
34	501.19	5314.88	165.917	5317.47	1.78804	76.2755
35	398.11	5335.53	179.091	5338.54	1.92246	78.1026
36	316.23	5356.01	193.497	5359.51	2.06903	79.8596
37	251.19	5378.84	211.142	5382.99	2.24794	81.7516
38	199.53	5404.36	231.951	5409.33	2.45759	83.2187
39	158.49	5425.97	256.556	5432.04	2.7071	85.1457
40	125.89	5456.69	285.375	5464.15	2.99374	86.7527
41	100	5489.44	318.054	5498.65	3.31596	88.5448
42	79.433	5525.82	356.207	5537.29	3.68831	90.2718
43	63.096	5568.87	400.649	5583.26	4.11502	92.1738
44	50.119	5619.24	450.661	5637.28	4.58529	94.1709
45	39.811	5679.13	503.632	5701.42	5.0678	96.1579
46	31.623	5743.92	561.958	5771.35	5.58776	98.1199
47	25.119	5822.35	627.034	5856.02	6.14674	100.242
48	19.953	5906.64	697.153	5947.64	6.73141	102.434
49	15.849	5997.48	769.185	6046.61	7.30836	104.741
50	12.589	6099.5	848.894	6158.29	7.92321	107.063
51	10	6205.73	931.164	6275.2	8.53352	110.51
52	7.9433	6325.42	1024.56	6407.86	9.20062	113.172
53	6.3096	6443.37	1129.01	6541.53	9.93851	115.904
54	5.0119	6575.79	1246.42	6692.88	10.7329	118.656
55	3.9811	6707.37	1384.66	6848.8	11.6642	121.633
56	3.1623	6849.3	1545.44	7021.49	12.715	124.51
57	2.5119	7002.96	1739.32	7215.72	13.9482	127.387
58	1.9953	7161.21	1964.93	7425.89	15.3435	130.455
59	1.5849	7339.64	2247.29	7675.98	17.0238	133.647
60	1.2589	7521.4	2576.63	7950.5	18.9101	137.029
61	1	7720.05	2983.8	8276.61	21.1315	140.821
62	0.79433	7951.49	3463.99	8673.26	23.5399	144.508
63	0.63096	8194.77	4042.04	9137.41	26.2547	148.435
64	0.50119	8438.64	4764.61	9690.83	29.4499	152.422
65	0.39811	8727.91	5682.37	10414.7	33.0664	157.199
66	0.31623	9042.79	6769.62	11296	36.8193	162.386
67	0.25119	9484.27	8082.58	12461.1	40.438	168.198
68	0.19953	9874.19	9750.05	13876.7	44.6376	174.875
69	0.15849	10356	11699.8	15624.7	48.4864	182.803
70	0.12589	11002.5	14209.1	17970.9	52.2484	191.53
71	0.1	11725.2	17043.9	20687.6	55.4744	201.897