File: data/Z_s1_1.3.txt
Index	Frequency (Hz)	Z' (Ω)	-Z'' (Ω)	Z (Ω)	-Phase (°)	Time (s)
1	1000000	2421.55	1523.2	2860.78	32.1706	22.3805
2	794330	2624.74	1387.13	2968.73	27.8557	24.1526
3	630960	2878.99	1295.59	3157.08	24.2285	25.9746
4	501190	3105.67	1209.49	3332.87	21.2783	27.9766
5	398110	3342.69	1076.49	3511.76	17.8508	30.1787
6	316230	3523.9	982.495	3658.3	15.579	31.8757
7	251190	3611.99	846.24	3709.8	13.1858	33.7028
8	199530	3756.96	764.375	3833.93	11.5002	35.4448
9	158490	3872.99	680.403	3932.3	9.96401	37.2618
10	125890	3967.4	599.628	4012.45	8.59457	39.0038
11	100000	4042.56	524.533	4076.45	7.39298	40.9059
12	79433	4106.01	457.478	4131.42	6.35748	42.7929
13	63096	4154.59	396.917	4173.51	5.4573	44.695
14	50119	4192.67	343.861	4206.75	4.68861	46.582
15	39811	4228	297.89	4238.48	4.0302	48.539
16	31623	4252	258.144	4259.83	3.47424	50.2961
17	25119	4275.43	227.022	4281.45	3.03951	52.1731
18	19953	4294.03	200.56	4298.71	2.67415	54.0951
19	15849	4309.12	178.838	4312.83	2.37654	56.0222
20	12589	4325.72	161.354	4328.73	2.1362	57.8342
21	10000	4339.17	147.056	4341.66	1.94103	59.7762
22	7943.3	4353.78	136.849	4355.93	1.80034	61.4883
23	6309.6	4366.43	128.779	4368.33	1.68934	63.5403
24	5011.9	4379.74	123.163	4381.47	1.6108	65.4173
25	3981.1	4391.14	119.802	4392.77	1.5628	67.2694
26	3162.3	4405.25	118.472	4406.85	1.5405	68.9314
27	2511.9	4416.14	118.458	4417.73	1.53652	70.8534
28	1995.3	4430.9	120.951	4432.55	1.56362	72.6305
29	1584.9	4444.18	124.663	4445.93	1.60678	74.5875
30	1258.9	4457.71	130.308	4459.61	1.6744	76.2645
31	1000	4472.53	138.192	4474.67	1.76976	78.3516
32	794.33	4486.12	147.821	4488.55	1.88725	80.3386
33	630.96	4506.69	160.418	4509.55	2.03861	82.1807
34	501.19	4525.48	174.964	4528.86	2.21406	84.0827
35	398.11	4544.05	192.211	4548.11	2.42215	85.8397
36	316.23	4569.35	213.15	4574.32	2.67078	87.5668
37	251.19	4591.75	236.412	4597.83	2.94734	89.4938
38	199.53	4622.74	263.303	4630.24	3.25994	91.3158
39	158.49	4653.13	292.771	4662.33	3.60025	93.0078
40	125.89	4689.66	325.395	4700.94	3.96914	95.0249
41	100	4732.42	362.522	4746.29	4.38053	96.7119
42	79.433	4779.84	401.053	4796.63	4.79618	98.484
43	63.096	4834.21	441.994	4854.38	5.22405	100.506
44	50.119	4891.38	488.044	4915.66	5.69791	102.718
45	39.811	4960.16	539.184	4989.38	6.20386	104.895
46	31.623	5033.68	591.67	5068.34	6.70391	106.812
47	25.119	5112.94	648.418	5153.89	7.22761	109.894
48	19.953	5198.66	712.239	5247.22	7.80121	112.461
49	15.849	5293.2	779.845	5350.34	8.38107	114.993
50	12.589	5390.31	853.206	5457.42	8.99445	117.61
51	10	5494.74	933.926	5573.54	9.64622	120.582
52	7.9433	5605.71	1025.07	5698.66	10.3628	123.314
53	6.3096	5729.27	1132.76	5840.18	11.1839	126.111
54	5.0119	5850.42	1253.75	5983.25	12.0956	128.774
55	3.9811	5987.7	1397.05	6148.52	13.1333	131.246
56	3.1623	6128.82	1565.13	6325.51	14.3256	133.908
57	2.5119	6282.31	1763.76	6525.2	15.6821	136.625
58	1.9953	6440.52	2000.47	6744.05	17.2551	140.172
59	1.5849	6616.67	2284.4	6999.92	19.0472	143.724
60	1.2589	6794.69	2624.91	7284.09	21.1224	146.921
61	1	7001.69	3044.23	7634.86	23.4987	150.333
62	0.79433	7243.43	3546.35	8064.98	26.0861	153.565
63	0.63096	7472.78	4162.3	8553.78	29.1176	157.112
64	0.50119	7754.27	4906.47	9176.17	32.3234	161.609
65	0.39811	8031.96	5850.55	9936.87	36.0699	166.091
66	0.31623	8367.49	6976.43	10894.3	39.8198	171.298
67	0.25119	8823.71	8347.59	12146.6	43.4117	177.045
68	0.19953	9240.15	10032.1	13639	47.3531	184.108
69	0.15849	9791.02	12084.2	15552.9	50.9845	191.62
70	0.12589	10503.2	14631.5	18011	54.3272	200.432
71	0.1	11336.3	17588.2	20925	57.1965	211.099