File: data/Z_s18_1.5.txt
Index	Frequency (Hz)	Z' (Ω)	-Z'' (Ω)	Z (Ω)	-Phase (°)	Time (s)
1	1000000	2683.78	2106.72	3411.88	38.1314	15.1174
2	794330	3019.99	1980.42	3611.43	33.2557	16.8744
3	630960	3420.29	1882.78	3904.26	28.8317	18.7215
4	501190	3767.67	1790.7	4171.57	25.4209	20.4785
5	398110	4170.71	1638.09	4480.87	21.4429	22.2705
6	316230	4460.87	1512.67	4710.37	18.7317	24.0026
7	251190	4621.04	1326.07	4807.54	16.0115	25.7246
8	199530	4850.58	1206.06	4998.27	13.963	27.5966
9	158490	5036.28	1079.45	5150.66	12.0974	29.3337
10	125890	5187.92	955.448	5275.17	10.4351	31.1157
11	100000	5313.53	838.903	5379.34	8.97184	32.6577
12	79433	5413.05	731.895	5462.3	7.70023	34.4148
13	63096	5492.39	635.109	5528.99	6.59606	36.0018
14	50119	5559.58	549.679	5586.68	5.64652	37.7738
15	39811	5614.57	474.377	5634.58	4.82947	39.4159
16	31623	5655.76	408.907	5670.53	4.13524	41.2579
17	25119	5693.31	357.287	5704.51	3.59092	42.8249
18	19953	5721.5	312.776	5730.04	3.12907	44.667
19	15849	5750.94	275.554	5757.54	2.7432	46.309
20	12589	5775.65	244.908	5780.84	2.42809	48.041
21	10000	5796.18	218.314	5800.29	2.15703	49.753
22	7943.3	5815.52	200.115	5818.96	1.9708	51.5851
23	6309.6	5833.96	184.09	5836.86	1.80736	53.3071
24	5011.9	5849.51	171.666	5852.03	1.68098	55.0091
25	3981.1	5869.7	162.517	5871.95	1.58597	56.5962
26	3162.3	5885.56	155.765	5887.62	1.51601	58.1932
27	2511.9	5904.53	151.38	5906.47	1.46862	59.9152
28	1995.3	5919.85	148.953	5921.72	1.44135	61.8023
29	1584.9	5937.5	148.936	5939.37	1.4369	63.6093
30	1258.9	5952.92	150.882	5954.83	1.4519	65.2863
31	1000	5973.42	153.903	5975.4	1.47588	67.1684
32	794.33	5991.23	159.432	5993.35	1.52433	68.7604
33	630.96	6008.3	166.635	6010.61	1.58864	70.6474
34	501.19	6029.44	175.867	6032	1.67074	72.4395
35	398.11	6048.4	187.693	6051.32	1.77742	74.0615
36	316.23	6071.18	202.37	6074.55	1.90913	75.4185
37	251.19	6094.16	219.115	6098.1	2.05918	76.9506
38	199.53	6119.01	239.99	6123.71	2.24602	78.2776
39	158.49	6145.07	264.634	6150.76	2.46589	79.9346
40	125.89	6172.49	292.33	6179.4	2.71151	81.5216
41	100	6207.23	326.626	6215.82	3.01214	83.2337
42	79.433	6245.32	366.156	6256.05	3.35535	85.3757
43	63.096	6293.42	406.447	6306.53	3.6952	87.0227
44	50.119	6339.93	457.09	6356.39	4.12372	88.7398
45	39.811	6395.64	519.076	6416.67	4.64001	90.3768
46	31.623	6460.95	579.855	6486.92	5.12842	92.1888
47	25.119	6532.31	648.103	6564.38	5.66605	93.8909
48	19.953	6612.06	726.487	6651.85	6.2701	96.3529
49	15.849	6701.88	808.183	6750.43	6.87612	98.735
50	12.589	6801.04	905.035	6860.99	7.58	100.987
51	10	6904.64	1009.19	6978	8.31552	103.894
52	7.9433	7023.64	1127.24	7113.52	9.1178	106.291
53	6.3096	7147.94	1263.25	7258.7	10.0224	108.808
54	5.0119	7282.59	1421.61	7420.05	11.0456	111.635
55	3.9811	7434.67	1608.62	7606.7	12.2087	114.727
56	3.1623	7595.44	1819.82	7810.41	13.4737	117.929
57	2.5119	7773.3	2074.96	8045.47	14.9457	120.676
58	1.9953	7969.2	2369.28	8313.94	16.5575	123.673
59	1.5849	8186.81	2720.05	8626.85	18.379	126.97
60	1.2589	8437.17	3120.86	8995.86	20.2991	130.468
61	1	8691.46	3630.53	9419.25	22.6709	134.335
62	0.79433	9003.5	4214.8	9941.21	25.0856	137.862
63	0.63096	9314.51	4930.65	10539	27.8946	141.479
64	0.50119	9672.05	5779.35	11267.2	30.8596	145.771
65	0.39811	10090.2	6814.2	12175.6	34.0324	150.398
66	0.31623	10548	8058.28	13273.9	37.3785	155.46
67	0.25119	10997.4	9561.92	14573	41.0059	161.272
68	0.19953	11665.8	11465.7	16357.1	44.5043	168.174
69	0.15849	12346.3	13749.3	18479	48.0776	175.856
70	0.12589	13072.2	16404.7	20976.1	51.4503	184.694
71	0.1	13835	19795.3	24150.8	55.0501	195.556