File: data/Z_s14_1.4.txt
Index	Frequency (Hz)	Z' (Ω)	-Z'' (Ω)	Z (Ω)	-Phase (°)	Time (s)
1	1000000	3423.33	2598.71	4297.96	37.2027	24.7436
2	794330	3812.45	2359.5	4483.53	31.7531	27.5007
3	630960	4266.27	2195.08	4797.86	27.2267	30.5827
4	501190	4719.51	2040.59	5141.77	23.3824	33.3348
5	398110	5191.18	1873.59	5518.94	19.8454	35.7118
6	316230	5515.11	1718.54	5776.66	17.3073	37.8589
7	251190	5687.43	1492.92	5880.11	14.7081	40.0659
8	199530	5945.44	1350.38	6096.87	12.7964	42.1179
9	158490	6151.09	1201.5	6267.34	11.0525	43.845
10	125890	6318.3	1056.57	6406.04	9.49336	45.692
11	100000	6454.69	921.865	6520.19	8.12807	47.139
12	79433	6562.42	799.295	6610.92	6.94435	48.7011
13	63096	6643.3	689.521	6678.99	5.92562	50.1931
14	50119	6717.53	593.261	6743.68	5.047	51.7401
15	39811	6771.36	508.29	6790.41	4.29283	53.1671
16	31623	6814.31	435.668	6828.23	3.65818	54.6542
17	25119	6851.87	379.933	6862.39	3.17377	56.0362
18	19953	6879.41	331.678	6887.4	2.76027	57.4382
19	15849	6910.53	291.634	6916.69	2.41653	58.8753
20	12589	6934.06	258.568	6938.88	2.13554	60.2823
21	10000	6953.78	232.274	6957.66	1.91311	61.9393
22	7943.3	6974.26	211.326	6977.46	1.73558	63.3713
23	6309.6	6995.85	195.126	6998.57	1.59767	64.9184
24	5011.9	7013.23	182.63	7015.61	1.49169	66.4054
25	3981.1	7033.06	173.656	7035.21	1.41442	68.0274
26	3162.3	7050.78	166.321	7052.74	1.3513	69.4794
27	2511.9	7068.85	162.135	7070.71	1.31394	71.0665
28	1995.3	7085.27	160.428	7087.09	1.29709	72.5885
29	1584.9	7101.62	160.444	7103.43	1.29424	73.8705
30	1258.9	7123.6	163.432	7125.47	1.31427	75.3276
31	1000	7140.94	166.777	7142.89	1.3379	76.7896
32	794.33	7161.8	172.507	7163.88	1.37982	78.4616
33	630.96	7183.83	180.635	7186.1	1.44038	80.1537
34	501.19	7205.97	190.739	7208.49	1.51624	82.3007
35	398.11	7228.29	203.555	7231.16	1.61308	84.0227
36	316.23	7250.83	219.079	7254.14	1.73063	87.2198
37	251.19	7276.13	236.364	7279.97	1.86059	90.8618
38	199.53	7301.73	259.238	7306.33	2.03335	94.9539
39	158.49	7331.13	286.459	7336.73	2.23766	100.451
40	125.89	7362.06	316.185	7368.84	2.45922	105.648
41	100	7397.13	355.874	7405.68	2.75436	108.95
42	79.433	7439.42	396.007	7449.95	3.04703	112.522
43	63.096	7488.87	450.179	7502.39	3.44009	116.469
44	50.119	7548.04	491.678	7564.03	3.72697	119.326
45	39.811	7612.79	556.142	7633.08	4.17825	122.478
46	31.623	7683.7	619.535	7708.63	4.60977	126.441
47	25.119	7766.93	681.507	7796.78	5.01455	130.258
48	19.953	7865.52	758.144	7901.97	5.50563	133.435
49	15.849	7966.25	828.947	8009.26	5.94067	136.137
50	12.589	8079.42	911.548	8130.68	6.43708	139.119
51	10	8199.2	992.262	8259.02	6.90034	142.026
52	7.9433	8322.23	1083.14	8392.42	7.4154	145.078
53	6.3096	8453.12	1186.22	8535.95	7.98808	148.275
54	5.0119	8589.7	1303.28	8688.01	8.62745	152.037
55	3.9811	8742.8	1440.89	8860.74	9.35874	155.769
56	3.1623	8890.17	1599.64	9032.94	10.2003	161.686
57	2.5119	9049.19	1787.74	9224.09	11.1754	165.958
58	1.9953	9221.93	2007.04	9437.81	12.2783	170.56
59	1.5849	9402.17	2280.11	9674.7	13.6316	174.147
60	1.2589	9580.38	2600.85	9927.14	15.1884	178.149
61	1	9789.74	3004.4	10240.4	17.0608	182.257
62	0.79433	10033.4	3488.7	10622.6	19.173	186.064
63	0.63096	10264.7	4057.19	11037.4	21.5667	190.411
64	0.50119	10547.3	4778.35	11579.2	24.3725	195.633
65	0.39811	10834	5672.52	12229.2	27.6359	201.35
66	0.31623	11098.1	6745.17	12987.1	31.2902	207.862
67	0.25119	11537.6	8053.07	14070.1	34.9146	215.444
68	0.19953	11968.5	9696.24	15403.3	39.0126	223.276
69	0.15849	12398.6	11698.2	17046.2	43.335	232.163
70	0.12589	12979.2	14094.3	19160.1	47.3585	242.281
71	0.1	13652.4	17028.6	21825.7	51.2797	253.938