File: data/Z_s12_1.2.txt
Index	Frequency (Hz)	Z' (Ω)	-Z'' (Ω)	Z (Ω)	-Phase (°)	Time (s)
1	1000000	2729.95	1812.11	3276.64	33.5758	20.9345
2	794330	2982.26	1643.5	3405.14	28.8589	22.6665
3	630960	3282.26	1526.9	3620.03	24.9478	24.4286
4	501190	3565.5	1425.58	3839.93	21.7928	26.2806
5	398110	3863.22	1275.4	4068.31	18.2701	28.0176
6	316230	4081.23	1165.89	4244.49	15.9431	29.7397
7	251190	4186.3	1003.44	4304.88	13.4792	31.5567
8	199530	4357.35	904.731	4450.28	11.7298	33.1837
9	158490	4495.1	804.222	4566.47	10.1435	34.8208
10	125890	4605.52	707.625	4659.57	8.73502	36.3828
11	100000	4691.71	617.517	4732.18	7.49809	38.3448
12	79433	4764.84	536.889	4795	6.42881	39.9419
13	63096	4821.29	465.03	4843.67	5.50933	41.7139
14	50119	4869.82	402.286	4886.41	4.72236	43.3109
15	39811	4906.06	347.034	4918.32	4.04612	45.098
16	31623	4934.04	300.478	4943.18	3.48496	46.735
17	25119	4962.79	264.504	4969.84	3.05083	48.612
18	19953	4983.72	233.386	4989.18	2.68119	50.2341
19	15849	5004.6	208.652	5008.94	2.3874	52.1311
20	12589	5022.98	188.475	5026.51	2.14888	53.8481
21	10000	5036.54	172.534	5039.5	1.96198	55.6752
22	7943.3	5054.16	160.931	5056.72	1.82376	57.2172
23	6309.6	5070.46	152.609	5072.75	1.72395	59.0342
24	5011.9	5085.58	146.881	5087.7	1.65435	60.7313
25	3981.1	5099.63	143.776	5101.65	1.61493	62.4083
26	3162.3	5114.58	142.751	5116.57	1.59874	64.1203
27	2511.9	5131.15	143.952	5133.17	1.60699	65.9823
28	1995.3	5147.07	146.949	5149.16	1.63536	67.6844
29	1584.9	5166.54	152.235	5168.78	1.68776	69.3614
30	1258.9	5182.67	159.515	5185.12	1.76292	71.0184
31	1000	5200.87	168.188	5203.59	1.85221	72.6955
32	794.33	5220.39	179.445	5223.47	1.9687	74.5075
33	630.96	5247.01	192.892	5250.56	2.10537	76.0795
34	501.19	5269.78	207.73	5273.87	2.25738	77.8466
35	398.11	5294.66	225.369	5299.45	2.43735	79.3336
36	316.23	5324.41	245.164	5330.05	2.63634	81.1206
37	251.19	5355.49	267.645	5362.18	2.86102	82.6377
38	199.53	5387.62	292.644	5395.56	3.10913	84.4297
39	158.49	5423.12	321.883	5432.66	3.39674	86.1517
40	125.89	5461.65	355.027	5473.18	3.7192	87.9388
41	100	5504.54	391.482	5518.44	4.06802	89.6508
42	79.433	5555.73	434.734	5572.71	4.47426	91.4828
43	63.096	5610.8	486.063	5631.82	4.95116	93.3749
44	50.119	5673.07	533.509	5698.1	5.37244	95.4369
45	39.811	5750.2	593.468	5780.75	5.89252	97.1739
46	31.623	5827.19	656.058	5864	6.42364	99.086
47	25.119	5918.06	719.226	5961.6	6.92922	100.828
48	19.953	6017.59	788.123	6068.98	7.46154	103.18
49	15.849	6125.28	858.922	6185.21	7.98229	105.572
50	12.589	6241.97	933.562	6311.4	8.50622	108.094
51	10	6359.92	1016.31	6440.61	9.07903	110.756
52	7.9433	6484.11	1108.31	6578.15	9.69964	113.553
53	6.3096	6613.24	1213.2	6723.6	10.3953	116.235
54	5.0119	6748.61	1336.31	6879.64	11.2004	118.852
55	3.9811	6891.34	1482.36	7048.96	12.1396	121.789
56	3.1623	7041.66	1656.16	7233.8	13.2351	124.711
57	2.5119	7202.76	1864.69	7440.22	14.5144	127.638
58	1.9953	7374.13	2115.11	7671.47	16.0044	130.581
59	1.5849	7567.82	2417.6	7944.61	17.7165	133.633
60	1.2589	7772.51	2771.62	8251.9	19.6259	137.04
61	1	8005.1	3208.18	8624.04	21.8393	140.782
62	0.79433	8274.09	3731.02	9076.41	24.272	144.284
63	0.63096	8565.98	4336.88	9601.28	26.8527	148.051
64	0.50119	8861.48	5097.22	10222.9	29.908	152.458
65	0.39811	9243.47	5997.55	11018.7	32.9772	157.16
66	0.31623	9648.13	7088.43	11972.1	36.3045	162.247
67	0.25119	10060.4	8423.8	13121.4	39.9402	168.019
68	0.19953	10654.4	10033.1	14634.9	43.2799	174.706
69	0.15849	11263.9	12016.6	16470.4	46.8519	182.499
70	0.12589	11952.7	14354	18679	50.2154	191.611
71	0.1	12584.5	17332.5	21419.3	54.018	202.113