File: data/Z_s13_1.txt
Index	Frequency (Hz)	Z' (Ω)	-Z'' (Ω)	Z (Ω)	-Phase (°)	Time (s)
1	1000000	3157.02	4504.76	5500.88	54.9765	23.8986
2	794330	4264.83	4616.64	6285.08	47.2684	26.7656
3	630960	5513.48	4653.22	7214.63	40.1634	30.0327
4	501190	6642.21	4490.36	8017.62	34.06	33.0197
5	398110	7942.53	4230.92	8999.13	28.0438	35.4568
6	316230	8707.04	3802.89	9501.29	23.5938	38.0138
7	251190	9136.38	3266.46	9702.74	19.6731	41.3409
8	199530	9637.42	2913.11	10068.1	16.8185	44.963
9	158490	10055.3	2583.52	10381.9	14.4094	48.615
10	125890	10385.5	2273.46	10631.4	12.3477	51.1021
11	100000	10668.8	1994.35	10853.6	10.5882	53.9691
12	79433	10902.4	1738.79	11040.2	9.06161	56.6062
13	63096	11097.7	1510.08	11199.9	7.74876	59.3782
14	50119	11264.5	1304.23	11339.8	6.60442	62.6353
15	39811	11396.6	1119.88	11451.4	5.61214	65.8323
16	31623	11493.4	956.921	11533.1	4.75939	68.5744
17	25119	11583.2	832.279	11613	4.10978	71.3914
18	19953	11659.4	723.007	11681.8	3.5484	74.0885
19	15849	11731.4	630.474	11748.3	3.07626	77.0956
20	12589	11784.8	552.187	11797.7	2.68269	80.0726
21	10000	11812.2	478.04	11821.8	2.3175	82.4497
22	7943.3	11869.5	429.47	11877.2	2.07222	84.9217
23	6309.6	11907.6	389.024	11913.9	1.8712	87.8388
24	5011.9	11961.2	356.477	11966.5	1.70707	90.9858
25	3981.1	12000.9	329.614	12005.4	1.57328	93.6629
26	3162.3	12040.4	309.784	12044.4	1.47382	96.6649
27	2511.9	12073.9	292.889	12077.4	1.38962	99.337
28	1995.3	12120.3	282.03	12123.6	1.33298	102.264
29	1584.9	12153.7	273.187	12156.8	1.28765	104.686
30	1258.9	12190.3	267.09	12193.2	1.25515	107.158
31	1000	12233.2	265.799	12236.1	1.24471	110.12
32	794.33	12268.6	266.954	12271.5	1.24651	113.092
33	630.96	12307.8	270.763	12310.8	1.26026	116.199
34	501.19	12346.5	277.139	12349.6	1.28589	118.716
35	398.11	12383	288.507	12386.4	1.33467	121.148
36	316.23	12429.3	301.638	12433	1.39019	123.985
37	251.19	12469.4	320.643	12473.5	1.47301	127.242
38	199.53	12516.3	341.329	12520.9	1.56211	130.745
39	158.49	12563.3	367.756	12568.7	1.67669	133.632
40	125.89	12618.2	401.652	12624.6	1.82318	136.019
41	100	12674.7	433.363	12682.1	1.95825	139.011
42	79.433	12729	476.826	12737.9	2.14529	141.878
43	63.096	12806.2	513.348	12816.5	2.29551	145.08
44	50.119	12877.9	590.02	12891.4	2.62326	147.977
45	39.811	12961.1	633.898	12976.6	2.79998	150.749
46	31.623	13058.1	695.91	13076.6	3.05061	153.461
47	25.119	13159.4	763.656	13181.6	3.32121	156.453
48	19.953	13255	832.285	13281.1	3.59291	160.01
49	15.849	13383.5	910.758	13414.5	3.89301	163.887
50	12.589	13511.5	993.334	13548	4.20469	167.324
51	10	13651.6	1077.92	13694.1	4.51467	171.041
52	7.9433	13795.9	1173.92	13845.8	4.86369	174.808
53	6.3096	13949.9	1291.15	14009.6	5.28801	178.71
54	5.0119	14111.6	1416.85	14182.5	5.73348	182.453
55	3.9811	14285.4	1567.19	14371.1	6.26066	186.155
56	3.1623	14470.2	1737.06	14574.1	6.84522	189.922
57	2.5119	14659.1	1939.2	14786.8	7.5357	193.744
58	1.9953	14878.3	2178.62	15036.9	8.33061	197.626
59	1.5849	15140.2	2461.87	15339.1	9.23575	202.373
60	1.2589	15373.9	2789.82	15625	10.2852	207.175
61	1	15634.2	3198.37	15958	11.5618	212.017
62	0.79433	15939	3668.41	16355.7	12.9611	217.434
63	0.63096	16280	4244.29	16824.1	14.6121	222.471
64	0.50119	16631.1	4946.45	17351.1	16.5636	227.733
65	0.39811	17015.5	5746.59	17959.6	18.6612	233.745
66	0.31623	17395.2	6757.7	18661.7	21.2302	240.278
67	0.25119	17990.7	7934.34	19662.7	23.7986	247.23
68	0.19953	18500.9	9400.46	20752.2	26.9354	255.002
69	0.15849	19300.6	11259.1	22344.6	30.2573	263.749
70	0.12589	20056.8	13397.1	24119.6	33.7412	273.561
71	0.1	20881.7	16093.8	26363.9	37.6219	286.168