File: data/Z_s15_1.txt
Index	Frequency (Hz)	Z' (Ω)	-Z'' (Ω)	Z (Ω)	-Phase (°)	Time (s)
1	1000000	2435.84	2472.24	3470.63	45.4249	27.2176
2	794330	2948.08	2366.04	3780.12	38.7495	29.0897
3	630960	3469.17	2398.08	4217.34	34.6544	31.2317
4	501190	3990.13	2307.21	4609.15	30.0378	33.3087
5	398110	4507.6	2144.96	4991.93	25.4477	36.5008
6	316230	4884.21	1978.94	5269.89	22.0563	41.0979
7	251190	5109.23	1745.24	5399.09	18.8594	44.0199
8	199530	5400.19	1599.94	5632.22	16.5032	46.777
9	158490	5641.98	1450.25	5825.39	14.4156	49.029
10	125890	5849.29	1303.22	5992.71	12.5603	51.2261
11	100000	6027.65	1162.32	6138.69	10.9144	52.9181
12	79433	6176.43	1028.09	6261.41	9.45048	54.7851
13	63096	6302.5	903.148	6366.88	8.15497	56.7522
14	50119	6406.15	786.929	6454.3	7.00311	59.4792
15	39811	6490.07	680.517	6525.65	5.98588	61.7363
16	31623	6557.36	585.575	6583.46	5.103	63.4983
17	25119	6613.26	508.18	6632.75	4.39412	65.5453
18	19953	6656.81	440.685	6671.38	3.78749	67.3374
19	15849	6698.93	383.021	6709.87	3.27241	69.4144
20	12589	6729.95	335.678	6738.32	2.85545	71.8714
21	10000	6755.62	296.743	6762.13	2.51512	74.2985
22	7943.3	6783.87	265.546	6789.07	2.24163	76.7555
23	6309.6	6805.99	240.196	6810.23	2.02123	78.7076
24	5011.9	6825.58	220.476	6829.14	1.85009	81.6746
25	3981.1	6845.53	204.715	6848.59	1.71291	85.7517
26	3162.3	6868.28	194.002	6871.02	1.61796	87.7437
27	2511.9	6886.88	185.515	6889.38	1.54303	89.5908
28	1995.3	6908.13	181.038	6910.51	1.50118	91.5028
29	1584.9	6927.04	178.526	6929.34	1.47632	93.9749
30	1258.9	6947.33	179.483	6949.65	1.4799	96.1919
31	1000	6966.19	180.947	6968.54	1.48792	98.4539
32	794.33	6988.53	185.068	6990.98	1.51694	100.821
33	630.96	7011.84	191.77	7014.47	1.56662	103.823
34	501.19	7032.59	201.967	7035.49	1.64501	107.55
35	398.11	7060.95	211.687	7064.12	1.71721	109.567
36	316.23	7085.97	225.168	7089.55	1.82005	112.369
37	251.19	7111.56	243.99	7115.75	1.96498	114.416
38	199.53	7141.08	262.209	7145.89	2.10287	116.573
39	158.49	7172.26	283.156	7177.85	2.26083	119.065
40	125.89	7203.77	306.384	7210.28	2.43538	120.937
41	100	7229.94	343.59	7238.1	2.72083	123.084
42	79.433	7282.68	373.465	7292.25	2.93563	125.456
43	63.096	7287.6	420.363	7299.71	3.30128	127.798
44	50.119	7346.35	484.689	7362.32	3.77473	130.421
45	39.811	7442.29	512.119	7459.89	3.93643	133.163
46	31.623	7513.5	583.138	7536.09	4.43795	135.67
47	25.119	7572.95	640.607	7599.99	4.83523	138.167
48	19.953	7663.83	700.232	7695.75	5.22053	141.379
49	15.849	7739.24	760.296	7776.5	5.61068	144.541
50	12.589	7842.85	853.045	7889.1	6.2075	147.493
51	10	7955.59	945.631	8011.6	6.77859	150.495
52	7.9433	8066.97	1035.7	8133.19	7.31607	153.582
53	6.3096	8188.94	1158.61	8270.5	8.05299	156.634
54	5.0119	8311.58	1287.92	8410.78	8.80823	159.861
55	3.9811	8451.7	1443.43	8574.07	9.69177	163.158
56	3.1623	8600.2	1620.99	8751.63	10.6741	166.415
57	2.5119	8755.86	1833.37	8945.74	11.8262	170.317
58	1.9953	8930.54	2087.03	9171.16	13.1537	175.029
59	1.5849	9117.21	2391.43	9425.63	14.6975	178.656
60	1.2589	9315.94	2751.55	9713.79	16.455	182.849
61	1	9546.23	3188.51	10064.6	18.4697	187.836
62	0.79433	9804.44	3709.9	10482.9	20.7261	192.023
63	0.63096	10074.6	4319.66	10961.6	23.2081	195.905
64	0.50119	10391.4	5113.09	11581.3	26.1994	200.427
65	0.39811	10739.6	6035.2	12319.2	29.3341	205.839
66	0.31623	11129	7145.57	13225.5	32.7031	211.206
67	0.25119	11641.9	8500.89	14415.2	36.1369	218.793
68	0.19953	12187.5	10233.6	15914.2	40.0195	226.83
69	0.15849	12878.5	12110.2	17678.1	43.2388	235.797
70	0.12589	13589.1	14491.1	19866	46.8399	245.115
71	0.1	14348.9	17465.4	22603.8	50.5948	256.307