File: data/Z_s18_1.4.txt
Index	Frequency (Hz)	Z' (Ω)	-Z'' (Ω)	Z (Ω)	-Phase (°)	Time (s)
1	1000000	2697.13	1977.38	3344.33	36.2467	48.274
2	794330	2991.59	1822.51	3503.03	31.3503	50.1861
3	630960	3353.64	1729.51	3773.35	27.2807	51.9131
4	501190	3681.9	1623.73	4024.04	23.7976	53.7801
5	398110	4027.32	1496.94	4296.52	20.3899	55.4072
6	316230	4289.68	1382.7	4507.01	17.8657	57.1642
7	251190	4429.91	1205.38	4590.97	15.2217	58.8112
8	199530	4640.36	1096.3	4768.1	13.2925	60.6933
9	158490	4811.39	981.648	4910.51	11.5316	62.4203
10	125890	4949.54	868.924	5025.23	9.95719	64.1923
11	100000	5062.8	762.745	5119.93	8.56757	65.9493
12	79433	5153.55	666.024	5196.41	7.36387	67.7264
13	63096	5226.65	578.624	5258.58	6.31729	69.4684
14	50119	5288.41	501.362	5312.12	5.41568	71.2004
15	39811	5337.1	432.845	5354.63	4.63661	73.0425
16	31623	5374.96	373.676	5387.93	3.9769	74.8695
17	25119	5406.79	326.98	5416.67	3.4608	76.5515
18	19953	5436.21	286.954	5443.78	3.02159	78.3286
19	15849	5461.37	253.788	5467.26	2.6606	80.0356
20	12589	5483.63	225.99	5488.29	2.35992	81.6676
21	10000	5502.1	203.684	5505.87	2.12008	83.4847
22	7943.3	5521.79	186.309	5524.93	1.93247	85.1467
23	6309.6	5537.87	172.164	5540.55	1.78067	86.9337
24	5011.9	5555.15	161.563	5557.5	1.66589	88.5508
25	3981.1	5572.81	153.671	5574.93	1.57954	90.3378
26	3162.3	5589.46	148.097	5591.42	1.51774	91.8998
27	2511.9	5602.59	144.509	5604.46	1.47751	93.7119
28	1995.3	5619.64	143.096	5621.47	1.45863	95.3189
29	1584.9	5637.8	143.702	5639.63	1.46009	97.1109
30	1258.9	5651.34	145.158	5653.2	1.47135	98.678
31	1000	5668.84	149.799	5670.82	1.51369	100.535
32	794.33	5687.44	155.46	5689.56	1.56573	102.227
33	630.96	5704.73	162.897	5707.06	1.63562	103.954
34	501.19	5727.48	173.314	5730.11	1.73325	105.601
35	398.11	5745.98	184.59	5748.95	1.84	107.348
36	316.23	5766.51	199.041	5769.94	1.97688	109.4
37	251.19	5788.43	216.852	5792.49	2.14547	111.402
38	199.53	5811.39	237.856	5816.26	2.34377	112.904
39	158.49	5839.73	262.325	5845.62	2.57204	114.866
40	125.89	5869.11	291.371	5876.34	2.8421	116.483
41	100	5898.96	325.447	5907.93	3.15782	118.145
42	79.433	5938.7	364.314	5949.87	3.51046	119.827
43	63.096	5984.49	409.023	5998.45	3.90993	121.794
44	50.119	6033.72	460.049	6051.23	4.36016	123.776
45	39.811	6085.77	515.52	6107.57	4.84192	125.503
46	31.623	6152.08	574.384	6178.83	5.33391	127.465
47	25.119	6223.71	642.976	6256.84	5.89834	129.583
48	19.953	6302.14	721.707	6343.33	6.53292	131.65
49	15.849	6396.99	806.009	6447.57	7.18132	134.017
50	12.589	6489.51	897.866	6551.33	7.87723	136.404
51	10	6594.72	1001.32	6670.31	8.63365	139.076
52	7.9433	6709.34	1122.91	6802.66	9.50127	141.693
53	6.3096	6832.87	1256.83	6947.5	10.4224	144.485
54	5.0119	6967.97	1416.6	7110.52	11.4917	147.367
55	3.9811	7114.21	1601.77	7292.3	12.6886	150.014
56	3.1623	7272.19	1814.34	7495.1	14.0088	153.026
57	2.5119	7451.81	2067.99	7733.44	15.5101	156.088
58	1.9953	7646.91	2365.47	8004.41	17.1888	159.12
59	1.5849	7863.41	2721.38	8321.01	19.0898	162.182
60	1.2589	8101.91	3134.35	8687.07	21.1498	165.504
61	1	8363.01	3626.74	9115.54	23.4447	169.166
62	0.79433	8671.58	4227.5	9647.18	25.9898	173.263
63	0.63096	9000.89	4925.43	10260.4	28.6882	177.14
64	0.50119	9354.16	5795.6	11004.1	31.7813	181.387
65	0.39811	9724.53	6815.46	11875.1	35.0248	186.01
66	0.31623	10171.2	8066.13	12981.4	38.4156	191.147
67	0.25119	10679.9	9656.49	14398.2	42.119	197.119
68	0.19953	11271.4	11461.7	16075.2	45.4796	203.696
69	0.15849	11940.9	13698.9	18172.7	48.9225	211.388
70	0.12589	12664.1	16513.8	20810.7	52.5161	220.31
71	0.1	13716.2	19975.8	24231.5	55.5251	230.807