File: data/Z_s18_1.3.txt
Index	Frequency (Hz)	Z' (Ω)	-Z'' (Ω)	Z (Ω)	-Phase (°)	Time (s)
1	1000000	2719.72	2067.62	3416.42	37.2434	28.3436
2	794330	3038.4	1936.07	3602.81	32.5053	29.8907
3	630960	3408.6	1819.21	3863.69	28.0893	31.6077
4	501190	3762.35	1722.83	4138.04	24.6036	33.3697
5	398110	4140.04	1595.43	4436.82	21.075	35.2568
6	316230	4419.43	1476.69	4659.61	18.4763	36.9188
7	251190	4578.65	1300.35	4759.72	15.8547	38.7408
8	199530	4804.16	1186.52	4948.52	13.8732	40.3879
9	158490	4989.99	1065.88	5102.56	12.0574	42.0849
10	125890	5140.57	946.262	5226.93	10.4301	43.6619
11	100000	5265.7	832.962	5331.17	8.98894	45.244
12	79433	5365.5	728.895	5414.79	7.73618	46.876
13	63096	5448.61	634.974	5485.48	6.64719	48.433
14	50119	5516.59	551.055	5544.05	5.70438	50.06
15	39811	5574.85	476.923	5595.21	4.8897	51.5521
16	31623	5613.17	412.196	5628.28	4.19991	53.2941
17	25119	5649.25	361.571	5660.81	3.66212	54.8761
18	19953	5682	317.183	5690.84	3.19507	56.6282
19	15849	5708.34	279.656	5715.18	2.80472	58.3202
20	12589	5731.53	249.683	5736.97	2.4944	60.1272
21	10000	5756.86	224.377	5761.23	2.23201	61.7943
22	7943.3	5778.77	205.437	5782.42	2.03602	63.4313
23	6309.6	5796.32	189.939	5799.43	1.87684	65.1083
24	5011.9	5813.83	177.638	5816.54	1.75009	66.7404
25	3981.1	5832.41	168.382	5834.84	1.65368	68.5974
26	3162.3	5847.67	161.76	5849.91	1.58453	70.2294
27	2511.9	5866.67	158.055	5868.8	1.54324	71.9965
28	1995.3	5884.53	156.15	5886.6	1.52003	73.5735
29	1584.9	5903.94	156.731	5906.02	1.52067	75.2255
30	1258.9	5921.96	158.49	5924.08	1.53305	76.7525
31	1000	5940.29	162.55	5942.51	1.56745	78.4946
32	794.33	5955.77	168.101	5958.14	1.61674	80.1816
33	630.96	5978.94	176.404	5981.55	1.68998	81.9786
34	501.19	5996.72	186.559	5999.62	1.7819	83.7507
35	398.11	6019.9	199.446	6023.2	1.89758	85.4077
36	316.23	6044.17	213.936	6047.95	2.02717	87.0747
37	251.19	6067.57	232.693	6072.03	2.19623	88.8968
38	199.53	6094.57	254.191	6099.87	2.38829	90.5738
39	158.49	6121.26	279.903	6127.65	2.6181	92.3558
40	125.89	6151.2	309.378	6158.98	2.8793	94.0829
41	100	6185.94	344.937	6195.55	3.1916	95.8449
42	79.433	6223.33	386.993	6235.35	3.55831	97.7169
43	63.096	6273.16	430.419	6287.9	3.92507	99.574
44	50.119	6326.3	488.384	6345.12	4.41442	101.711
45	39.811	6383.47	545.763	6406.75	4.8867	103.728
46	31.623	6453.09	610.154	6481.87	5.40138	105.525
47	25.119	6528.25	684.087	6563.99	5.98212	107.877
48	19.953	6611.56	765.07	6655.68	6.60074	110.019
49	15.849	6704.2	851.42	6758.04	7.23771	112.371
50	12.589	6807.85	952.239	6874.13	7.96251	114.588
51	10	6920.56	1060.55	7001.35	8.71255	117.17
52	7.9433	7041.41	1189	7141.09	9.58444	119.742
53	6.3096	7174.09	1334.07	7297.08	10.5342	122.539
54	5.0119	7311.73	1494.96	7462.99	11.5555	125.141
55	3.9811	7466.86	1687.15	7655.09	12.7323	127.838
56	3.1623	7638.36	1914.31	7874.59	14.0695	130.771
57	2.5119	7823.99	2177.06	8121.23	15.5495	133.653
58	1.9953	8031.01	2488.69	8407.78	17.2175	136.575
59	1.5849	8262.88	2858.15	8743.24	19.0806	139.672
60	1.2589	8518.86	3289.59	9131.94	21.1143	142.874
61	1	8793.85	3812.41	9584.69	23.4382	148.218
62	0.79433	9110.85	4426.1	10129.1	25.9107	151.625
63	0.63096	9453.19	5175.1	10777	28.6983	155.357
64	0.50119	9818.77	6053.64	11534.9	31.6554	159.479
65	0.39811	10264.4	7145.58	12506.7	34.8437	164.211
66	0.31623	10745.9	8470.49	13682.9	38.2472	169.398
67	0.25119	11277.9	9997.47	15071.2	41.5558	175.125
68	0.19953	11969.7	11968.1	16926.6	44.9961	181.752
69	0.15849	12693.6	14314.2	19131.8	48.4339	189.37
70	0.12589	13515.9	17072.8	21775.2	51.6328	198.242
71	0.1	14334	20657.2	25143.2	55.2433	208.644