File: data/Z_s17_1.4.txt
Index	Frequency (Hz)	Z' (Ω)	-Z'' (Ω)	Z (Ω)	-Phase (°)	Time (s)
1	1000000	2543.68	1836.58	3137.41	35.8299	19.9525
2	794330	2839.06	1702.76	3310.54	30.9537	21.5545
3	630960	3159.67	1603.77	3543.39	26.9112	23.3366
4	501190	3467.95	1509.31	3782.15	23.5195	25.1486
5	398110	3783.69	1389.13	4030.63	20.16	27.2406
6	316230	4024.66	1283.62	4224.4	17.6895	28.8127
7	251190	4157.97	1122.56	4306.84	15.1083	30.5947
8	199530	4351.96	1023.85	4470.77	13.2387	32.3767
9	158490	4512.34	919.61	4605.1	11.5191	34.1238
10	125890	4643.38	816.755	4714.67	9.97608	35.9258
11	100000	4751.21	719.561	4805.39	8.61189	37.8628
12	79433	4837.17	630.372	4878.08	7.42484	39.7149
13	63096	4908.29	549.108	4938.91	6.38335	41.4169
14	50119	4969.6	476.939	4992.44	5.48196	43.1989
15	39811	5018.35	413.076	5035.32	4.70559	45.141
16	31623	5053.42	357.122	5066.02	4.04233	46.918
17	25119	5087.43	312.693	5097.03	3.51719	48.76
18	19953	5113.97	274.515	5121.33	3.07266	50.5871
19	15849	5138.25	242.616	5143.97	2.70337	52.4241
20	12589	5159.34	216.035	5163.86	2.39772	54.1011
21	10000	5177.31	194.865	5180.97	2.1555	55.7282
22	7943.3	5197.09	177.665	5200.12	1.95793	57.4452
23	6309.6	5212.54	164.053	5215.12	1.80266	59.1472
24	5011.9	5229.91	153.451	5232.16	1.68063	60.8993
25	3981.1	5244.14	145.321	5246.15	1.58733	62.2613
26	3162.3	5260.01	139.514	5261.86	1.51933	63.9133
27	2511.9	5276.95	135.796	5278.7	1.47411	65.5753
28	1995.3	5292.74	133.523	5294.42	1.44513	67.4974
29	1584.9	5305.15	133.057	5306.82	1.43672	68.9844
30	1258.9	5321.92	134.198	5323.62	1.44447	70.6264
31	1000	5339.53	136.2	5341.27	1.46118	72.3285
32	794.33	5353.59	140.268	5355.43	1.50085	74.2455
33	630.96	5374.03	145.478	5376	1.55065	75.9675
34	501.19	5389.39	152.8	5391.55	1.62401	77.9296
35	398.11	5408.06	162.097	5410.49	1.71682	79.4616
36	316.23	5425.55	173.128	5428.31	1.82768	81.4486
37	251.19	5445.27	186.754	5448.47	1.96428	83.1607
38	199.53	5464.86	202.628	5468.62	2.12345	84.8377
39	158.49	5485.95	222.522	5490.46	2.32276	86.5147
40	125.89	5512.95	245.613	5518.42	2.55095	88.4418
41	100	5540.03	273.916	5546.79	2.83058	90.1888
42	79.433	5568.43	306.305	5576.85	3.14852	91.9508
43	63.096	5606.9	345.537	5617.54	3.52651	93.8479
44	50.119	5647.29	383.711	5660.31	3.88705	96.0449
45	39.811	5695.71	433.224	5712.16	4.34963	97.7369
46	31.623	5749.62	483.748	5769.93	4.8093	99.944
47	25.119	5812.31	542.149	5837.54	5.3289	101.876
48	19.953	5880.34	605.727	5911.45	5.88123	104.328
49	15.849	5954.61	675.227	5992.77	6.46946	106.665
50	12.589	6037.23	748.922	6083.5	7.07145	109.532
51	10	6125.21	834.373	6181.78	7.75705	112.239
52	7.9433	6218.54	927.305	6287.3	8.48141	115.081
53	6.3096	6316.71	1040.89	6401.9	9.35726	117.903
54	5.0119	6424.27	1171.95	6530.29	10.3386	120.53
55	3.9811	6536.14	1324.83	6669.05	11.4582	123.482
56	3.1623	6664.65	1509.96	6833.56	12.7656	126.404
57	2.5119	6798.03	1726.62	7013.87	14.2511	129.357
58	1.9953	6947.58	1986.41	7225.97	15.956	132.544
59	1.5849	7116.25	2301.78	7479.25	17.924	135.701
60	1.2589	7291.9	2668.28	7764.76	20.0988	139.043
61	1	7497.66	3118.94	8120.51	22.5867	142.695
62	0.79433	7741.71	3671.13	8568.03	25.3703	146.417
63	0.63096	7991.91	4321.96	9085.7	28.4041	150.439
64	0.50119	8254.62	5090.37	9697.97	31.6608	154.721
65	0.39811	8582.76	6085.35	10521.2	35.3374	159.453
66	0.31623	8919.74	7248.29	11493.5	39.0977	164.85
67	0.25119	9383.29	8669.29	12775.1	42.7351	170.557
68	0.19953	9830.18	10462.4	14356	46.7845	177.039
69	0.15849	10372.1	12610.5	16328.1	50.5627	184.622
70	0.12589	11090.6	15197.5	18813.9	53.8794	193.549
71	0.1	11738.7	18299.5	21741	57.3208	204.251