File: data/Z_s15_1.5.txt
Index	Frequency (Hz)	Z' (Ω)	-Z'' (Ω)	Z (Ω)	-Phase (°)	Time (s)
1	1000000	2912.31	2499.33	3837.73	40.636	21.9576
2	794330	3335.66	2373.45	4093.88	35.4333	24.0046
3	630960	3816.05	2267.31	4438.8	30.7167	25.9016
4	501190	4281.17	2166.09	4797.96	26.8374	27.9687
5	398110	4771.4	2036.67	5187.9	23.1152	30.0507
6	316230	5136.44	1901.45	5477.09	20.314	32.0377
7	251190	5365.35	1672.53	5620	17.3137	34.0248
8	199530	5657.54	1537.11	5862.63	15.1999	36.0468
9	158490	5900.22	1387.57	6061.18	13.2339	38.0389
10	125890	6102.56	1237.42	6226.76	11.4625	39.9059
11	100000	6269.31	1094.3	6364.1	9.90116	41.9279
12	79433	6406.55	964.459	6478.74	8.56117	43.545
13	63096	6514.11	843.568	6568.5	7.37867	45.752
14	50119	6610.9	732.159	6651.32	6.31977	47.179
15	39811	6687.48	632.304	6717.31	5.40128	48.6161
16	31623	6742.86	545.016	6764.85	4.62109	49.9831
17	25119	6794.52	474.451	6811.07	3.99439	51.3851
18	19953	6835.66	412.772	6848.12	3.45562	52.8321
19	15849	6875.21	360.217	6884.64	2.99919	54.1792
20	12589	6904.67	316.796	6911.93	2.62697	55.6762
21	10000	6930.97	279.143	6936.59	2.30633	57.1132
22	7943.3	6958.09	251.034	6962.62	2.06622	58.6602
23	6309.6	6979.93	226.739	6983.62	1.86056	60.0323
24	5011.9	6999.52	208.044	7002.62	1.70248	61.4493
25	3981.1	7018.55	192.729	7021.2	1.57294	62.8913
26	3162.3	7040.21	180.54	7042.52	1.46898	64.2183
27	2511.9	7056.68	171.602	7058.77	1.39303	65.6054
28	1995.3	7077.08	164.988	7079	1.3355	66.9874
29	1584.9	7095.41	160.596	7097.22	1.2966	68.4244
30	1258.9	7113.2	159.615	7114.99	1.28546	69.9114
31	1000	7132.96	158.373	7134.71	1.27193	71.4235
32	794.33	7149.3	160.029	7151.09	1.28228	73.0655
33	630.96	7170.24	163.322	7172.1	1.30484	74.5075
34	501.19	7187.98	169.223	7189.97	1.34864	75.9746
35	398.11	7211.94	176.22	7214.09	1.39971	77.3766
36	316.23	7230.06	187.049	7232.48	1.48197	78.8236
37	251.19	7253.44	199.545	7256.19	1.57583	80.2506
38	199.53	7275.28	213.632	7278.42	1.68195	81.5477
39	158.49	7300.5	232.524	7304.21	1.82427	82.9597
40	125.89	7322.06	254.531	7326.49	1.99092	84.4417
41	100	7352.46	283.043	7357.91	2.20459	85.8787
42	79.433	7387.73	311.098	7394.27	2.41131	87.3858
43	63.096	7419.49	353.817	7427.93	2.73023	89.1628
44	50.119	7458.64	377.792	7468.2	2.89964	90.8998
45	39.811	7517.66	428.163	7529.85	3.25972	92.5319
46	31.623	7571.89	482.672	7587.26	3.6474	94.1789
47	25.119	7638.86	531.476	7657.32	3.97996	95.8759
48	19.953	7704.05	587.924	7726.45	4.36399	97.823
49	15.849	7791.08	648.14	7818	4.75549	99.895
50	12.589	7872.46	711.573	7904.55	5.16479	102.172
51	10	7963.02	784.457	8001.56	5.6262	104.469
52	7.9433	8066.2	861.127	8112.03	6.09367	107.046
53	6.3096	8165.38	946.908	8220.1	6.61483	109.618
54	5.0119	8279.64	1046.03	8345.45	7.20047	112.545
55	3.9811	8395.14	1160.65	8474.99	7.87141	115.107
56	3.1623	8520.24	1290.62	8617.44	8.6135	117.719
57	2.5119	8651.11	1443.55	8770.72	9.47329	121.581
58	1.9953	8786.71	1624.55	8935.62	10.475	124.368
59	1.5849	8937.09	1845.8	9125.7	11.6694	127.476
60	1.2589	9074.9	2100.22	9314.76	13.0306	130.408
61	1	9264.7	2432.89	9578.81	14.7135	136.057
62	0.79433	9466.23	2818.28	9876.85	16.5793	139.974
63	0.63096	9663.6	3295.03	10209.9	18.828	144.041
64	0.50119	9864.97	3881.22	10601	21.4764	148.108
65	0.39811	10090.6	4553.23	11070.4	24.2865	152.585
66	0.31623	10419.4	5443.61	11755.7	27.5847	158.082
67	0.25119	10674.8	6528.41	12512.9	31.4488	163.784
68	0.19953	11155.5	7797.09	13610.3	34.9514	170.811
69	0.15849	11622.3	9367.83	14927.6	38.8697	178.398
70	0.12589	12090	11248.2	16513.4	42.9344	187.916
71	0.1	12527.6	13607.3	18496	47.3658	203.003