File: data/Z_s10_1.txt
Index	Frequency (Hz)	Z' (Ω)	-Z'' (Ω)	Z (Ω)	-Phase (°)	Time (s)
1	1000000	2952.2	3484.95	4567.32	49.7311	26.4446
2	794330	3651.55	3513.31	5067.27	43.8947	30.2667
3	630960	4590.8	3394.32	5709.37	36.4782	36.3638
4	501190	5387.94	3221.81	6277.74	30.878	46.271
5	398110	6216.61	2967.72	6888.66	25.5191	51.0631
6	316230	6733.49	2651.59	7236.77	21.4941	55.0201
7	251190	7008.21	2265.93	7365.42	17.9173	57.7172
8	199530	7357.28	2011.22	7627.23	15.2891	61.1593
9	158490	7634.56	1768.3	7836.67	13.0408	64.6563
10	125890	7860.64	1544.96	8011.03	11.1194	68.2334
11	100000	8040.29	1343.03	8151.69	9.48302	71.2304
12	79433	8190.15	1163.58	8272.39	8.08593	74.9525
13	63096	8312.52	1004.63	8373.01	6.89117	78.9696
14	50119	8407.84	865.551	8452.27	5.87765	82.6366
15	39811	8493.6	743.49	8526.08	5.00266	86.4787
16	31623	8553.87	639.311	8577.73	4.27431	90.8108
17	25119	8607.99	560.032	8626.18	3.7224	94.4429
18	19953	8658.07	492.074	8672.04	3.25286	98.5749
19	15849	8702.92	435.101	8713.79	2.86211	103.062
20	12589	8740.07	389.079	8748.73	2.54894	106.054
21	10000	8770.95	352.131	8778.01	2.29905	108.821
22	7943.3	8805.01	323.949	8810.97	2.10705	112.093
23	6309.6	8837.18	301.972	8842.34	1.95707	114.915
24	5011.9	8870.29	285.241	8874.88	1.84182	118.447
25	3981.1	8898.09	272.927	8902.28	1.75686	122.149
26	3162.3	8928.29	265.752	8932.25	1.70491	126.521
27	2511.9	8963.55	261.114	8967.35	1.66859	130.679
28	1995.3	8996.08	260.247	8999.84	1.65704	134.456
29	1584.9	9025.3	261.672	9029.09	1.66072	136.818
30	1258.9	9059.95	268.137	9063.91	1.69522	140.105
31	1000	9094.14	275.088	9098.3	1.73261	143.062
32	794.33	9128.42	286.207	9132.9	1.79583	146.269
33	630.96	9164.38	299.587	9169.27	1.87236	150.141
34	501.19	9194.65	316.088	9200.08	1.96891	152.923
35	398.11	9242.98	337.855	9249.15	2.09338	156.105
36	316.23	9287.33	361.573	9294.37	2.22951	158.162
37	251.19	9333.56	391.453	9341.77	2.4016	160.474
38	199.53	9374.07	424.341	9383.67	2.59187	162.331
39	158.49	9432.63	465.31	9444.1	2.8241	164.368
40	125.89	9487.61	510.017	9501.3	3.07704	166.895
41	100	9552.08	561.934	9568.59	3.36674	169.317
42	79.433	9623.43	619.033	9643.32	3.68051	172.234
43	63.096	9702.19	674.664	9725.61	3.97779	176.561
44	50.119	9792.29	746.792	9820.73	4.36112	179.088
45	39.811	9896.42	832.806	9931.4	4.81023	181.36
46	31.623	10013.4	916.59	10055.3	5.23006	183.618
47	25.119	10132.3	1011.39	10182.7	5.70029	186.3
48	19.953	10272.6	1115.98	10333.1	6.20005	189.677
49	15.849	10424.3	1229.05	10496.6	6.72424	193.399
50	12.589	10585.8	1340.81	10670.4	7.21867	196.956
51	10	10751.3	1462.17	10850.2	7.74468	199.633
52	7.9433	10934.4	1602.24	11051.2	8.33634	202.39
53	6.3096	11131.2	1755.78	11268.9	8.96366	204.982
54	5.0119	11333.3	1931.49	11496.7	9.67176	208.144
55	3.9811	11550.6	2140.19	11747.2	10.4972	211.491
56	3.1623	11769.6	2387.2	12009.3	11.4656	215.628
57	2.5119	12006.5	2680.93	12302.2	12.5871	219.34
58	1.9953	12257.5	3036.43	12628	13.9132	223.402
59	1.5849	12524.3	3456.95	12992.7	15.4305	227.464
60	1.2589	12822.8	3964.21	13421.6	17.1792	233.816
61	1	13142.1	4589.76	13920.6	19.2512	238.274
62	0.79433	13502.7	5349.52	14523.8	21.6126	242.141
63	0.63096	13911.2	6265.35	15257	24.2459	247.383
64	0.50119	14351.4	7324.01	16112.2	27.0368	252.655
65	0.39811	14806.1	8645.93	17145.7	30.2825	258.667
66	0.31623	15464.5	10278.6	18568.8	33.6102	266.649
67	0.25119	16160.4	12252	20279.8	37.1676	273.226
68	0.19953	16826.1	14572.2	22259	40.8941	280.688
69	0.15849	17811.2	17462.8	24943.7	44.4342	312.132
70	0.12589	18825.8	21007.3	28208.4	48.1346	322.134
71	0.1	20083.3	25079.1	32129.4	51.3124	335.456