File: data/Z_s12_1.3.txt
Index	Frequency (Hz)	Z' (Ω)	-Z'' (Ω)	Z (Ω)	-Phase (°)	Time (s)
1	1000000	2780.54	1896.57	3365.77	34.2974	19.9365
2	794330	3063.07	1737.22	3521.41	29.5597	21.6285
3	630960	3378.04	1606.72	3740.69	25.4375	23.4456
4	501190	3669.92	1506.66	3967.16	22.3202	25.1626
5	398110	3989.95	1349.94	4212.13	18.6925	27.0296
6	316230	4219.56	1233.41	4396.13	16.294	28.7267
7	251190	4336.78	1065.85	4465.84	13.8078	30.4287
8	199530	4516.6	961.369	4617.79	12.0162	32.2707
9	158490	4661.89	854.663	4739.58	10.3887	33.8878
10	125890	4782.37	752.076	4841.15	8.93714	35.7748
11	100000	4876.02	656.557	4920.02	7.66877	37.6118
12	79433	4951.01	570.452	4983.77	6.57259	39.8439
13	63096	5011.91	494.228	5036.22	5.63177	43.1459
14	50119	5063.7	426.939	5081.67	4.81942	45.153
15	39811	5100.66	368.032	5113.92	4.12697	47.035
16	31623	5132.2	318.468	5142.07	3.55081	48.757
17	25119	5158.62	279.557	5166.19	3.10195	50.4391
18	19953	5181.73	246.333	5187.58	2.72172	52.0211
19	15849	5203.65	219.483	5208.28	2.41522	53.8731
20	12589	5221.26	197.821	5225	2.16977	55.5502
21	10000	5238.22	180.518	5241.32	1.97373	57.2872
22	7943.3	5256.58	167.911	5259.27	1.82958	58.8742
23	6309.6	5271.99	158.321	5274.37	1.72011	60.6762
24	5011.9	5284.54	152.041	5286.72	1.648	62.2783
25	3981.1	5303.27	148.182	5305.33	1.60052	64.0453
26	3162.3	5318.05	146.6	5320.07	1.57904	65.6273
27	2511.9	5335.32	147.299	5337.36	1.58144	67.3594
28	1995.3	5351.17	150.014	5353.27	1.60581	68.9764
29	1584.9	5367.7	154.931	5369.93	1.6533	70.6734
30	1258.9	5385.86	162.233	5388.3	1.72534	72.3155
31	1000	5404.49	170.504	5407.18	1.807	74.2025
32	794.33	5425.24	181.408	5428.27	1.91513	75.9395
33	630.96	5448.29	194.004	5451.74	2.03934	77.7616
34	501.19	5474.01	209.263	5478.01	2.18926	79.5586
35	398.11	5500.76	226.809	5505.44	2.3611	81.1906
36	316.23	5527.83	247.004	5533.34	2.55849	82.8427
37	251.19	5557.61	269.557	5564.15	2.7768	84.5297
38	199.53	5590.97	294.767	5598.73	3.01796	86.2867
39	158.49	5626.2	324.542	5635.56	3.30139	87.8888
40	125.89	5664.1	356.657	5675.32	3.60305	89.7458
41	100	5707.3	395.851	5721.02	3.9676	91.4478
42	79.433	5756.64	439.478	5773.4	4.36564	93.2449
43	63.096	5811.92	486.335	5832.24	4.7833	94.9269
44	50.119	5877.45	545.608	5902.72	5.30361	96.9089
45	39.811	5947.19	602.415	5977.62	5.78399	98.776
46	31.623	6029.64	665.7	6066.28	6.3002	100.743
47	25.119	6125.86	734.456	6169.73	6.8368	102.615
48	19.953	6225.13	804.366	6276.88	7.36255	104.762
49	15.849	6335.14	878.013	6395.7	7.89059	107.179
50	12.589	6454.88	956.594	6525.38	8.42971	110.231
51	10	6580.38	1042.42	6662.44	9.00158	112.723
52	7.9433	6700.95	1136.7	6796.68	9.62763	115.445
53	6.3096	6835.69	1241.4	6947.5	10.2931	118.322
54	5.0119	6973.78	1365.55	7106.22	11.079	121.039
55	3.9811	7122.65	1513.32	7281.64	11.995	123.861
56	3.1623	7275.66	1687.29	7468.74	13.0566	126.668
57	2.5119	7441.77	1899.21	7680.3	14.3168	129.591
58	1.9953	7625.47	2149.84	7922.72	15.7447	132.648
59	1.5849	7812.85	2447.85	8187.34	17.3963	135.88
60	1.2589	8027.32	2801.13	8502.01	19.2364	139.257
61	1	8261.37	3248.33	8877.04	21.4645	145.131
62	0.79433	8524.77	3771.12	9321.64	23.8632	148.478
63	0.63096	8818.79	4403.23	9856.95	26.533	152.28
64	0.50119	9115.65	5145.71	10467.7	29.4444	156.477
65	0.39811	9492.59	6085.91	11276	32.6649	161.194
66	0.31623	9907.62	7209.75	12253.2	36.0433	166.266
67	0.25119	10369	8549.01	13438.8	39.5047	172.668
68	0.19953	10826	10172.6	14855.4	43.2179	179.665
69	0.15849	11414.6	12170.2	16685.5	46.8349	187.163
70	0.12589	12098.7	14670.4	19015.7	50.4874	196.25
71	0.1	13014.8	17656.4	21934.8	53.6056	207.027