File: data/Z_s16_1.3.txt
Index	Frequency (Hz)	Z' (Ω)	-Z'' (Ω)	Z (Ω)	-Phase (°)	Time (s)
1	1000000	4172.06	3920.85	5725.31	43.222	20.0875
2	794330	4826.01	3718.91	6092.68	37.6178	21.5095
3	630960	5642.66	3317.68	6545.73	30.4539	23.2316
4	501190	6322.12	3141.48	7059.61	26.4229	24.9086
5	398110	7186.66	2914.99	7755.34	22.078	31.7307
6	316230	7700.35	2672.19	8150.83	19.1379	35.1628
7	251190	7991.65	2329.88	8324.36	16.2535	39.7519
8	199530	8388.03	2103.09	8647.66	14.0754	41.1839
9	158490	8706.58	1867.57	8904.62	12.1065	42.6459
10	125890	8968.14	1640.31	9116.92	10.3651	44.0529
11	100000	9172.56	1426.62	9282.84	8.84048	45.515
12	79433	9338.01	1234.09	9419.21	7.52846	47.677
13	63096	9469.03	1058.5	9528.01	6.37833	49.149
14	50119	9574.53	908.37	9617.52	5.41963	50.7211
15	39811	9664.36	772.81	9695.21	4.57193	52.1431
16	31623	9721.14	657.236	9743.34	3.86782	53.7201
17	25119	9771.38	568.639	9787.91	3.33053	55.0571
18	19953	9823.01	492.413	9835.35	2.86975	56.5842
19	15849	9860.21	427.925	9869.49	2.48503	57.9562
20	12589	9894.07	374.723	9901.16	2.16896	59.3982
21	10000	9928.39	331.911	9933.93	1.91471	63.0043
22	7943.3	9950.45	296.483	9954.87	1.70668	64.4913
23	6309.6	9978.94	268.067	9982.54	1.53878	65.9383
24	5011.9	10001.8	245.097	10004.8	1.40377	67.4004
25	3981.1	10025.7	226.778	10028.3	1.29579	68.7624
26	3162.3	10046.3	212.716	10048.5	1.21298	70.2544
27	2511.9	10071.3	201.318	10073.3	1.14515	71.7115
28	1995.3	10091.6	192.273	10093.4	1.09152	73.3485
29	1584.9	10114.3	186.788	10116	1.058	74.7505
30	1258.9	10133.4	182.588	10135.1	1.03226	76.2675
31	1000	10154.5	182.217	10156.2	1.02803	77.7696
32	794.33	10173.8	182.292	10175.4	1.0265	79.3316
33	630.96	10199	185.04	10200.7	1.0394	80.8886
34	501.19	10220.5	189.286	10222.3	1.06101	82.3206
35	398.11	10245.7	196.327	10247.6	1.09776	83.6627
36	316.23	10267	205.674	10269	1.14763	84.9397
37	251.19	10292.5	217.04	10294.8	1.20803	86.3767
38	199.53	10314.1	232.413	10316.8	1.29085	87.8538
39	158.49	10340.8	249.545	10343.8	1.3824	89.3058
40	125.89	10367.5	270.786	10371.1	1.49615	91.1728
41	100	10403	299.225	10407.3	1.64756	92.6948
42	79.433	10432.3	325.649	10437.4	1.78793	94.3169
43	63.096	10479.9	369.757	10486.4	2.0207	95.8539
44	50.119	10519.4	409.544	10527.3	2.22953	97.8309
45	39.811	10574.7	438.186	10583.8	2.37281	99.448
46	31.623	10642.5	483.356	10653.4	2.60045	101.28
47	25.119	10693.8	527.707	10706.9	2.82507	102.892
48	19.953	10768.9	586.516	10784.9	3.11747	104.889
49	15.849	10848.5	631.603	10866.9	3.33202	106.871
50	12.589	10936.2	690.883	10958	3.61478	109.008
51	10	11013.1	755.449	11039	3.92409	111.49
52	7.9433	11112.5	827.623	11143.3	4.25934	113.907
53	6.3096	11210.9	911.895	11247.9	4.6502	116.319
54	5.0119	11308.9	1004.12	11353.4	5.07399	118.831
55	3.9811	11420.9	1115.6	11475.3	5.57899	121.288
56	3.1623	11529.3	1246.78	11596.5	6.17202	124.07
57	2.5119	11654.9	1398.27	11738.5	6.84121	126.822
58	1.9953	11777.4	1582.52	11883.3	7.65296	129.46
59	1.5849	11920.2	1805.58	12056.2	8.61327	132.282
60	1.2589	12056.6	2075.9	12234	9.76935	135.284
61	1	12240.5	2406.54	12474.8	11.1228	140.488
62	0.79433	12421.7	2791.88	12731.6	12.6672	143.825
63	0.63096	12599.1	3264.96	13015.3	14.5281	147.572
64	0.50119	12822.5	3856.45	13389.9	16.739	151.484
65	0.39811	13039.8	4529.86	13804.2	19.1566	156.051
66	0.31623	13352	5446.98	14420.3	22.1931	162.688
67	0.25119	13638.5	6483.54	15101.1	25.4258	168.915
68	0.19953	14085	7867.95	16133.6	29.1879	175.417
69	0.15849	14528.1	9411.42	17310.1	32.9355	182.765
70	0.12589	14911.2	11272.3	18692.5	37.0878	191.522
71	0.1	15443.9	13906.2	20782.1	42.001	201.849