File: data/Z_s13_1.5.txt
Index	Frequency (Hz)	Z' (Ω)	-Z'' (Ω)	Z (Ω)	-Phase (°)	Time (s)
1	1000000	4164.93	4907.42	6436.57	49.6787	18.2415
2	794330	4979.71	4791.33	6910.45	43.8955	20.0235
3	630960	6303.36	4516.41	7754.37	35.6219	22.0105
4	501190	7348.28	4416.78	8573.51	31.0085	23.7776
5	398110	8585.49	4329.75	9615.47	26.7623	25.7896
6	316230	9394.29	4069.65	10237.9	23.4225	27.4416
7	251190	9922.56	3634.26	10567.2	20.1159	30.5807
8	199530	10562.2	3340.96	11078	17.5528	32.3327
9	158490	11094.8	3018.83	11498.2	15.2213	33.9798
10	125890	11542	2693.64	11852.2	13.1364	35.7868
11	100000	11905.2	2377.15	12140.2	11.292	37.6238
12	79433	12202	2082.31	12378.4	9.68438	39.3809
13	63096	12444.5	1813.55	12576	8.29141	40.9979
14	50119	12645.8	1565.2	12742.3	7.05573	42.7799
15	39811	12808.3	1341.35	12878.4	5.97848	44.602
16	31623	12922	1145.17	12972.7	5.06441	46.384
17	25119	13016.9	993.907	13054.8	4.36636	48.346
18	19953	13107.7	863.02	13136.1	3.76695	50.6431
19	15849	13178.1	747.223	13199.2	3.24532	52.3501
20	12589	13243.2	652.59	13259.2	2.82111	54.1471
21	10000	13270.8	562.368	13282.8	2.42653	55.8792
22	7943.3	13330.2	500.178	13339.6	2.14885	57.5912
23	6309.6	13380.4	449.046	13388	1.92212	59.3432
24	5011.9	13419.9	406.559	13426	1.73526	60.9853
25	3981.1	13466.1	372.421	13471.3	1.58418	62.6473
26	3162.3	13498.1	343.738	13502.5	1.45876	64.2443
27	2511.9	13530.6	320.843	13534.4	1.35837	66.0464
28	1995.3	13562.2	303.773	13565.6	1.28312	67.5984
29	1584.9	13597.5	290.214	13600.6	1.22269	69.4154
30	1258.9	13629.9	280.382	13632.8	1.17848	70.9324
31	1000	13660.4	271.589	13663.1	1.13897	72.7245
32	794.33	13696.5	268.838	13699.2	1.12447	74.5465
33	630.96	13731.3	268.113	13733.9	1.1186	76.3985
34	501.19	13755.5	270.49	13758.1	1.12653	78.2156
35	398.11	13791.4	274.751	13794.1	1.14129	79.9826
36	316.23	13824.1	283.365	13827	1.17428	81.6546
37	251.19	13857.3	298.448	13860.5	1.2338	83.4717
38	199.53	13893.8	309.5	13897.2	1.27612	85.1537
39	158.49	13924.5	331.031	13928.4	1.36185	86.8557
40	125.89	13962.3	361.017	13967	1.48114	88.5428
41	100	13994.2	382.924	13999.5	1.56739	90.3298
42	79.433	14048.8	424.618	14055.2	1.73121	92.1618
43	63.096	14098.8	496.496	14107.5	2.01687	93.9589
44	50.119	14115.2	509.469	14124.4	2.06711	95.9609
45	39.811	14218	567.567	14229.3	2.28598	98.0279
46	31.623	14304.9	630.536	14318.8	2.52386	100.29
47	25.119	14363	697.627	14379.9	2.78073	102.577
48	19.953	14459.4	766.027	14479.7	3.03256	104.654
49	15.849	14567.9	840.347	14592.1	3.30144	106.911
50	12.589	14667.3	923.681	14696.4	3.60347	109.398
51	10	14791.7	1022.79	14827	3.95548	111.895
52	7.9433	14929.5	1123.13	14971.7	4.30217	114.817
53	6.3096	15060.1	1234.62	15110.6	4.6866	117.724
54	5.0119	15202.8	1361.97	15263.7	5.11928	120.446
55	3.9811	15359.8	1504.5	15433.3	5.59431	123.318
56	3.1623	15528.6	1667.74	15617.9	6.12996	126.13
57	2.5119	15709.5	1858.92	15819.1	6.74847	129.043
58	1.9953	15906.1	2077.19	16041.2	7.4402	132.28
59	1.5849	16118.9	2336.98	16287.5	8.24946	135.567
60	1.2589	16390.2	2663.2	16605.2	9.22918	140.876
61	1	16604	3010.56	16874.7	10.277	146.345
62	0.79433	16902.7	3441.81	17249.6	11.5095	149.872
63	0.63096	17194.2	3985.57	17650.1	13.0505	153.939
64	0.50119	17492.7	4608.22	18089.6	14.7585	158.081
65	0.39811	17808.1	5333.83	18589.7	16.6739	162.758
66	0.31623	18229.1	6269.7	19277.2	18.9801	167.965
67	0.25119	18581.3	7426.16	20010.3	21.7845	173.977
68	0.19953	19165.3	8704	21049.2	24.4254	180.659
69	0.15849	19837.7	10382.8	22390.6	27.627	188.482
70	0.12589	20344.1	12257.9	23751.6	31.0701	197.314
71	0.1	21016.2	14928.6	25778.8	35.3877	207.866