File: data/Z_s16_1.txt
Index	Frequency (Hz)	Z' (Ω)	-Z'' (Ω)	Z (Ω)	-Phase (°)	Time (s)
1	1000000	4324.89	3757.94	5729.47	40.9877	32.9587
2	794330	5294.33	3526.25	6361.16	33.6653	35.6108
3	630960	5648.08	3113.61	6449.45	28.8665	38.8078
4	501190	6286.91	2939.46	6940.15	25.0586	41.1049
5	398110	7078.06	2707.22	7578.12	20.9309	44.1619
6	316230	7548.49	2487.06	7947.66	18.2359	46.759
7	251190	7816.13	2165.92	8110.68	15.4885	49.9561
8	199530	8188.33	1960.77	8419.82	13.4664	51.8731
9	158490	8491.46	1748.1	8669.53	11.6327	55.4402
10	125890	8733.08	1539.24	8867.69	9.99595	57.9372
11	100000	8930.95	1343.62	9031.46	8.55569	60.0292
12	79433	9089.97	1166.06	9164.45	7.31	62.1813
13	63096	9217.78	1006.24	9272.53	6.22993	64.2033
14	50119	9322.44	864.449	9362.43	5.29776	66.6254
15	39811	9402.79	739.393	9431.82	4.49623	68.5924
16	31623	9459.98	629.38	9480.89	3.80632	70.6494
17	25119	9513.7	548.061	9529.47	3.29703	72.8765
18	19953	9556.12	477.09	9568.02	2.85812	75.8935
19	15849	9600.51	417.699	9609.6	2.49125	78.3856
20	12589	9635.87	368.883	9642.93	2.19234	81.3376
21	10000	9664.36	329.988	9669.99	1.9556	83.3897
22	7943.3	9693.95	298.833	9698.55	1.76568	87.3437
23	6309.6	9715.93	273.596	9719.78	1.61299	89.3308
24	5011.9	9744.28	255.025	9747.62	1.49919	91.4828
25	3981.1	9771.77	240.414	9774.72	1.40936	93.3549
26	3162.3	9799.26	230.845	9801.98	1.34949	95.7369
27	2511.9	9821.96	223.74	9824.51	1.30495	97.7739
28	1995.3	9845.56	221.062	9848.04	1.28625	100.931
29	1584.9	9871.44	220.256	9873.9	1.27819	103.973
30	1258.9	9897.8	223.841	9900.33	1.29554	105.71
31	1000	9921.64	227.824	9924.25	1.31542	107.992
32	794.33	9952.5	234.735	9955.26	1.3511	111.069
33	630.96	9982.2	245.538	9985.22	1.40905	113.426
34	501.19	10012.2	257.192	10015.5	1.47148	115.708
35	398.11	10044.3	272.321	10048	1.55303	118.675
36	316.23	10079	291.214	10083.2	1.655	120.812
37	251.19	10116.3	313.158	10121.2	1.77307	123.239
38	199.53	10154.5	336.122	10160	1.89585	125.656
39	158.49	10195	362.92	10201.5	2.03874	128.429
40	125.89	10244.5	393.925	10252.1	2.20207	131.281
41	100	10288	429.197	10297	2.38889	133.628
42	79.433	10347	469.409	10357.6	2.59754	135.875
43	63.096	10416.5	511.241	10429.1	2.80981	137.887
44	50.119	10462.1	572.54	10477.8	3.13238	141.274
45	39.811	10544.8	622.937	10563.2	3.38084	143.686
46	31.623	10628.8	677.173	10650.3	3.64546	145.953
47	25.119	10716.4	748.488	10742.5	3.99535	148.72
48	19.953	10813.4	830.57	10845.2	4.39223	151.912
49	15.849	10920.7	907.471	10958.3	4.75017	155.334
50	12.589	11027.1	1005.64	11072.9	5.21079	159.241
51	10	11144	1103.81	11198.5	5.65669	162.933
52	7.9433	11276.2	1226.14	11342.6	6.20583	166.245
53	6.3096	11419.3	1362.53	11500.3	6.80425	170.602
54	5.0119	11562.5	1517.8	11661.7	7.4784	174.049
55	3.9811	11732.8	1701.44	11855.5	8.25127	177.626
56	3.1623	11908.7	1916.45	12061.9	9.14219	181.238
57	2.5119	12107	2169.87	12299.9	10.1609	185.346
58	1.9953	12317.1	2468	12562	11.3304	189.123
59	1.5849	12541.9	2821.85	12855.5	12.68	192.845
60	1.2589	12800.4	3233.54	13202.5	14.177	197.727
61	1	13088.2	3735.32	13610.7	15.9286	201.779
62	0.79433	13407.4	4325.22	14087.8	17.8797	205.596
63	0.63096	13785.3	5048.6	14680.7	20.1143	210.468
64	0.50119	14178.6	5850.17	15338.1	22.4213	215.21
65	0.39811	14581.6	6909.35	16135.8	25.3535	220.727
66	0.31623	15096	8089.84	17127	28.1866	226.304
67	0.25119	15650.9	9598.2	18359.6	31.5195	232.481
68	0.19953	16431.4	11410.1	20004.6	34.7764	239.499
69	0.15849	17236.1	13658.2	21991.5	38.3939	247.536
70	0.12589	18179.5	16295.9	24414.1	41.8726	256.963
71	0.1	19039	19173.9	27020.7	45.2023	279.977