File: data/Z_s17_1.5.txt
Index	Frequency (Hz)	Z' (Ω)	-Z'' (Ω)	Z (Ω)	-Phase (°)	Time (s)
1	1000000	2582.41	1993.18	3262.15	37.6621	21.6865
2	794330	2902.69	1858.57	3446.72	32.6312	23.2385
3	630960	3261.03	1783.2	3716.74	28.6708	25.0806
4	501190	3604.04	1680.32	3976.51	24.9964	26.9126
5	398110	3974.05	1551.16	4266.05	21.3219	28.7696
6	316230	4244.81	1437.84	4481.71	18.7127	30.2567
7	251190	4399.69	1263.89	4577.63	16.0276	32.1387
8	199530	4618.63	1153.27	4760.44	14.02	33.7457
9	158490	4798.96	1036.35	4909.59	12.186	35.4778
10	125890	4942.82	920.069	5027.72	10.5445	37.0648
11	100000	5065.22	810.182	5129.61	9.08749	38.8818
12	79433	5167.27	709.955	5215.82	7.82315	40.6339
13	63096	5244.49	618.324	5280.81	6.72411	42.4209
14	50119	5313.58	536.651	5340.61	5.7671	44.1129
15	39811	5367.31	463.97	5387.33	4.94058	45.7899
16	31623	5410.74	401.259	5425.59	4.24128	47.412
17	25119	5444.12	350.541	5455.4	3.68412	49.204
18	19953	5477.33	306.92	5485.92	3.20719	50.911
19	15849	5504.1	270.789	5510.76	2.81654	52.5431
20	12589	5525.36	240.434	5530.59	2.49164	54.3401
21	10000	5549.37	216.879	5553.61	2.23808	55.9871
22	7943.3	5569.73	196.375	5573.19	2.01927	57.8342
23	6309.6	5585.77	180.272	5588.67	1.84849	59.4012
24	5011.9	5605.74	167.97	5608.25	1.7163	61.2582
25	3981.1	5623.13	158.864	5625.37	1.61828	62.8453
26	3162.3	5638.07	151.116	5640.09	1.53533	64.7223
27	2511.9	5657.05	146.255	5658.94	1.48097	66.3093
28	1995.3	5673.35	143.659	5675.17	1.45052	68.1214
29	1584.9	5687.89	142.646	5689.68	1.43662	69.6434
30	1258.9	5707.5	143.501	5709.31	1.44025	71.3754
31	1000	5722.6	145.188	5724.45	1.45333	73.0625
32	794.33	5739.77	149.098	5741.71	1.488	75.0745
33	630.96	5761.95	154.254	5764.02	1.53351	76.7165
34	501.19	5780.03	161.098	5782.28	1.59651	78.5786
35	398.11	5796.28	170.073	5798.77	1.68068	80.0506
36	316.23	5817.06	181.451	5819.89	1.78665	81.8276
37	251.19	5836.72	195.401	5839.99	1.91742	83.5646
38	199.53	5861.85	211.651	5865.67	2.06786	85.3867
39	158.49	5882.19	232.035	5886.76	2.25898	87.0537
40	125.89	5908.42	255.484	5913.94	2.47597	88.9357
41	100	5938.3	285.49	5945.16	2.75243	90.6678
42	79.433	5968.16	316.707	5976.56	3.03761	92.4898
43	63.096	6013.44	358.925	6024.14	3.41577	94.5068
44	50.119	6052.53	396.309	6065.49	3.74628	96.8089
45	39.811	6097.58	449.371	6114.12	4.21488	98.6209
46	31.623	6158.49	504.934	6179.16	4.68719	100.743
47	25.119	6219.59	563.604	6245.07	5.17786	102.725
48	19.953	6291.28	630.67	6322.81	5.7245	104.992
49	15.849	6373.13	702.74	6411.76	6.29236	107.384
50	12.589	6457.49	780.585	6504.5	6.8925	109.796
51	10	6549.48	868.792	6606.85	7.5562	112.253
52	7.9433	6646.92	967.782	6717	8.28398	115.09
53	6.3096	6753.73	1084.25	6840.21	9.12047	117.872
54	5.0119	6865.34	1218.35	6972.61	10.0632	120.444
55	3.9811	6991.26	1378.12	7125.79	11.1512	123.351
56	3.1623	7115.12	1564.59	7285.11	12.4017	126.228
57	2.5119	7261.31	1791.73	7479.1	13.8609	129.105
58	1.9953	7416.3	2055.65	7695.92	15.4923	132.153
59	1.5849	7593.86	2376.32	7956.99	17.3763	135.33
60	1.2589	7771.43	2754.21	8245.05	19.5144	138.647
61	1	7995.65	3211.14	8616.37	21.881	142.294
62	0.79433	8248.56	3762.7	9066.24	24.5208	145.811
63	0.63096	8510.29	4424.52	9591.74	27.47	149.683
64	0.50119	8800.84	5249.07	10247.3	30.8131	154.08
65	0.39811	9109.99	6202.72	11021.1	34.2498	158.632
66	0.31623	9500.67	7402.23	12043.9	37.9231	163.949
67	0.25119	9887.31	8906.91	13307.6	42.0139	169.686
68	0.19953	10435.3	10642.3	14904.9	45.5627	176.543
69	0.15849	10990.5	12799.9	16870.9	49.3492	184.221
70	0.12589	11618.9	15433.6	19318.2	53.0265	193.368
71	0.1	12295.2	18819.3	22479.7	56.8422	204.035