File: data/Z_s10_1.2.txt
Index	Frequency (Hz)	Z' (Ω)	-Z'' (Ω)	Z (Ω)	-Phase (°)	Time (s)
1	1000000	3932.92	3513.32	5273.64	41.7748	24.7986
2	794330	4561.22	3289.79	5623.83	35.8011	26.4756
3	630960	5204.67	2987.12	6000.95	29.8529	28.3577
4	501190	5857.27	2848.57	6513.21	25.9351	30.0997
5	398110	6574.83	2649.41	7088.57	21.9476	32.4667
6	316230	7047.88	2453.42	7462.69	19.1934	34.2688
7	251190	7320.79	2156.78	7631.89	16.4155	36.0358
8	199530	7689.6	1961.99	7935.95	14.3135	37.9978
9	158490	7996.92	1758.63	8188.01	12.4027	39.8699
10	125890	8248.71	1556.53	8394.29	10.686	41.8419
11	100000	8452.22	1365.76	8561.85	9.17884	43.7239
12	79433	8614.81	1190.64	8696.69	7.86889	45.836
13	63096	8745.47	1032.65	8806.23	6.7342	47.603
14	50119	8856.39	892.685	8901.27	5.75572	49.785
15	39811	8948.9	768.184	8981.81	4.90631	51.5921
16	31623	9007.32	660.041	9031.47	4.19105	53.3291
17	25119	9062.38	577.971	9080.79	3.64921	55.5212
18	19953	9113.9	507.441	9128.02	3.1868	57.3482
19	15849	9163.23	447.706	9174.17	2.79719	59.3852
20	12589	9198.42	398.224	9207.03	2.47894	61.2823
21	10000	9235.6	359.493	9242.59	2.22909	63.3193
22	7943.3	9269.07	327.273	9274.84	2.02217	65.1813
23	6309.6	9300.57	302.321	9305.49	1.86178	67.3184
24	5011.9	9331.89	283.3	9336.19	1.73887	69.0004
25	3981.1	9361.86	268.421	9365.7	1.64232	70.9374
26	3162.3	9389.43	257.63	9392.97	1.5717	72.4595
27	2511.9	9417.56	250.604	9420.9	1.5243	74.3515
28	1995.3	9442.19	244.959	9445.37	1.48609	76.0285
29	1584.9	9469.96	244.301	9473.11	1.47776	77.5906
30	1258.9	9505.18	246.332	9508.37	1.48452	79.0476
31	1000	9537.33	250.542	9540.62	1.50479	80.7546
32	794.33	9566.2	258.152	9569.68	1.5458	83.0967
33	630.96	9598.9	267.645	9602.63	1.59716	85.2287
34	501.19	9628.11	280.723	9632.2	1.67008	87.1857
35	398.11	9666.25	296.325	9670.79	1.75589	89.2728
36	316.23	9699.64	316.685	9704.8	1.86999	91.4498
37	251.19	9740.64	340.424	9746.58	2.00161	93.8319
38	199.53	9783.33	368.868	9790.28	2.15924	95.2989
39	158.49	9823.35	402.084	9831.57	2.34389	97.1109
40	125.89	9872.87	440.829	9882.7	2.55659	98.778
41	100	9921.81	484.079	9933.61	2.79321	100.745
42	79.433	9982.36	536.524	9996.76	3.07653	102.337
43	63.096	10047.2	595.278	10064.8	3.39072	104.454
44	50.119	10130.2	650.454	10151.1	3.67388	106.481
45	39.811	10216.4	726.712	10242.2	4.06872	108.778
46	31.623	10318.6	803.967	10349.9	4.45516	111.02
47	25.119	10418.7	888.177	10456.5	4.87259	113.177
48	19.953	10535.9	977.358	10581.2	5.29983	115.624
49	15.849	10668.2	1077.32	10722.5	5.76641	118.426
50	12.589	10810.5	1184.36	10875.2	6.25219	120.803
51	10	10955.8	1294.03	11031.9	6.73624	123.75
52	7.9433	11115.9	1422.62	11206.5	7.29314	126.647
53	6.3096	11285.8	1569.75	11394.5	7.91847	129.49
54	5.0119	11465.4	1736.38	11596.2	8.61169	132.472
55	3.9811	11657.5	1920.07	11814.6	9.353	135.394
56	3.1623	11854.9	2155.72	12049.3	10.3062	138.411
57	2.5119	12074.7	2420.34	12314.9	11.3346	141.503
58	1.9953	12302.7	2736.75	12603.4	12.5413	144.9
59	1.5849	12552.3	3111.32	12932.2	13.9212	148.387
60	1.2589	12822.4	3566.64	13309.2	15.5443	152.234
61	1	13100.7	4118.91	13733	17.4533	156.056
62	0.79433	13439.2	4786.65	14266.2	19.6043	159.753
63	0.63096	13813.8	5594.96	14903.8	22.0493	163.82
64	0.50119	14190.6	6588.52	15645.5	24.9048	167.987
65	0.39811	14649.3	7773.85	16584.2	27.9533	172.964
66	0.31623	15162.5	9280.03	17777	31.4681	178.226
67	0.25119	15767.7	11035	19245.5	34.9861	184.684
68	0.19953	16412.1	13095.3	20996.2	38.5865	191.526
69	0.15849	17193.8	15647.6	23248.1	42.3046	199.138
70	0.12589	18106	18709.8	26036.2	45.9395	217.842
71	0.1	19241.9	22568.5	29657.9	49.5491	240.152