File: data/Z_s1_1.txt
Index	Frequency (Hz)	Z' (Ω)	-Z'' (Ω)	Z (Ω)	-Phase (°)	Time (s)
1	1000000	1895.15	1244.13	2267.03	33.2842	93.8488
2	794330	2098.48	1155.33	2395.5	28.8352	96.6359
3	630960	2318.32	1063.91	2550.78	24.651	100.083
4	501190	2510.28	961.037	2687.96	20.9488	102.63
5	398110	2682.88	826.595	2807.33	17.1241	105.127
6	316230	2810.65	733.761	2904.85	14.6313	106.839
7	251190	2858.06	620.441	2924.62	12.248	109.111
8	199530	2955.57	552.836	3006.82	10.5947	111.538
9	158490	3035.54	488.373	3074.58	9.13971	113.815
10	125890	3099.38	428.204	3128.82	7.86607	116.022
11	100000	3152.31	373.784	3174.4	6.76225	117.914
12	79433	3195.36	325.318	3211.87	5.81324	120.701
13	63096	3229.92	282.531	3242.25	4.99911	122.803
14	50119	3259.18	245.507	3268.41	4.30784	125.48
15	39811	3283.7	213.374	3290.63	3.71784	127.222
16	31623	3301.43	186.777	3306.71	3.23804	129.629
17	25119	3320.52	166.169	3324.68	2.86486	132.507
18	19953	3335.22	149.218	3338.56	2.56171	134.484
19	15849	3349.21	135.863	3351.96	2.32297	137.141
20	12589	3362.83	125.821	3365.18	2.14274	139.968
21	10000	3376.44	118.741	3378.53	2.01411	142.32
22	7943.3	3387.18	114.148	3389.11	1.93014	144.752
23	6309.6	3400.86	111.964	3402.7	1.88563	146.634
24	5011.9	3413.83	111.872	3415.66	1.87693	148.706
25	3981.1	3428.61	113.657	3430.49	1.89864	151.283
26	3162.3	3442.45	117.132	3444.44	1.94878	154
27	2511.9	3456.64	122.495	3458.81	2.02958	156.247
28	1995.3	3473.17	129.789	3475.59	2.1401	158.134
29	1584.9	3489.64	138.638	3492.39	2.27508	160.086
30	1258.9	3506.75	149.093	3509.92	2.43452	162.523
31	1000	3527.73	162.276	3531.46	2.63376	165.32
32	794.33	3549.12	177.318	3553.55	2.86018	167.142
33	630.96	3572.98	194.858	3578.29	3.12161	168.634
34	501.19	3598.39	215.014	3604.81	3.41952	170.861
35	398.11	3627.81	237.714	3635.59	3.74898	173.223
36	316.23	3660.57	263.027	3670	4.10987	175.895
37	251.19	3695.48	290.324	3706.86	4.49204	178.612
38	199.53	3736.95	320.95	3750.7	4.90883	180.274
39	158.49	3779.73	353.56	3796.23	5.34397	182.016
40	125.89	3830.41	388.315	3850.04	5.78869	183.803
41	100	3884.05	425.696	3907.31	6.25471	186.221
42	79.433	3946.29	465.194	3973.61	6.72309	188.408
43	63.096	4010.62	508.979	4042.78	7.23262	190.66
44	50.119	4083.71	550.378	4120.63	7.67574	192.767
45	39.811	4158.8	600.004	4201.86	8.2096	195.059
46	31.623	4239.94	651.254	4289.66	8.73237	197.731
47	25.119	4330.15	706.487	4387.4	9.26646	200.843
48	19.953	4423.32	768.633	4489.61	9.85775	203.07
49	15.849	4524.53	836.424	4601.19	10.4737	206.057
50	12.589	4633.4	913.411	4722.57	11.1521	209.334
51	10	4742.6	998.319	4846.54	11.8872	212.566
52	7.9433	4864.28	1098.2	4986.71	12.7223	216.568
53	6.3096	4989.58	1212.77	5134.85	13.6614	219.67
54	5.0119	5122.58	1347.66	5296.89	14.7395	223.827
55	3.9811	5263.86	1505.18	5474.83	15.9577	227.254
56	3.1623	5415.05	1693.08	5673.56	17.3625	231.051
57	2.5119	5577.21	1918.88	5898.08	18.9861	235.073
58	1.9953	5751.8	2188.47	6154.07	20.8311	238.601
59	1.5849	5944.1	2515.27	6454.37	22.9358	242.428
60	1.2589	6149.86	2905.3	6801.58	25.2869	246.495
61	1	6380.13	3384.58	7222.29	27.9454	250.322
62	0.79433	6643.73	3957.88	7733.3	30.7836	254.994
63	0.63096	6933.75	4653.83	8350.75	33.8689	260.096
64	0.50119	7260.52	5502.4	9109.97	37.1567	264.928
65	0.39811	7642.05	6533.22	10054	40.5273	270.81
66	0.31623	8083.95	7759.86	11205.6	43.8282	276.872
67	0.25119	8575.58	9295.57	12647.1	47.3071	284.204
68	0.19953	9234.5	11105	14442.9	50.2544	291.091
69	0.15849	9964.3	13358.6	16665.5	53.2805	299.259
70	0.12589	10829.8	16106.1	19408.5	56.0828	309.161
71	0.1	11873.8	19319.7	22676.8	58.4252	320.783