File: data/Z_s12_1.5.txt
Index	Frequency (Hz)	Z' (Ω)	-Z'' (Ω)	Z (Ω)	-Phase (°)	Time (s)
1	1000000	2814.2	2016.63	3462.16	35.625	21.0585
2	794330	3118.57	1820.55	3611.08	30.2753	23.4006
3	630960	3465.16	1725.89	3871.17	26.4765	25.6076
4	501190	3810.93	1604.71	4135.01	22.835	27.8946
5	398110	4142.84	1451.15	4389.64	19.3043	30.0967
6	316230	4388.79	1323.88	4584.12	16.786	32.2337
7	251190	4515.35	1140.96	4657.27	14.181	34.5208
8	199530	4709.79	1028.34	4820.75	12.3167	36.4528
9	158490	4863.51	912.605	4948.39	10.6276	38.5398
10	125890	4986.03	801.443	5050.03	9.13148	40.5469
11	100000	5085.43	698.819	5133.22	7.82434	42.7489
12	79433	5166.95	606.903	5202.47	6.69919	44.876
13	63096	5230.31	524.663	5256.55	5.7283	46.983
14	50119	5282.41	453.105	5301.81	4.90261	49.34
15	39811	5324.32	390.386	5338.61	4.1935	51.5221
16	31623	5357.23	336.941	5367.82	3.59885	53.7341
17	25119	5385.75	295.27	5393.84	3.13806	55.6512
18	19953	5408.15	260.033	5414.39	2.75276	57.7482
19	15849	5432.66	230.813	5437.56	2.43282	59.7552
20	12589	5451.19	207.283	5455.13	2.17763	61.8023
21	10000	5467.69	189.559	5470.97	1.98559	63.8293
22	7943.3	5487.04	174.637	5489.82	1.82295	65.9313
23	6309.6	5500.93	164.249	5503.39	1.71025	68.2534
24	5011.9	5516.15	156.473	5518.36	1.62483	70.7504
25	3981.1	5531.8	151.575	5533.88	1.56955	72.8475
26	3162.3	5549.62	149.157	5551.62	1.53956	74.9195
27	2511.9	5565.3	149.001	5567.29	1.53363	76.9315
28	1995.3	5579.24	150.995	5581.29	1.55026	79.1236
29	1584.9	5595.72	154.951	5597.87	1.58617	80.9406
30	1258.9	5614.96	160.614	5617.26	1.63848	83.1027
31	1000	5635.65	169.044	5638.18	1.7181	84.8547
32	794.33	5656.82	178.927	5659.65	1.81168	87.1967
33	630.96	5678.85	191.494	5682.08	1.93132	89.1588
34	501.19	5700.19	205.473	5703.9	2.06443	91.3108
35	398.11	5726.68	222.061	5730.98	2.22062	93.2629
36	316.23	5753.65	241.343	5758.71	2.40192	95.1999
37	251.19	5782.13	262.948	5788.11	2.60379	97.3369
38	199.53	5814.77	288.495	5821.92	2.84035	99.374
39	158.49	5846.4	316.674	5854.97	3.10043	101.586
40	125.89	5885.38	348.768	5895.7	3.39139	103.548
41	100	5925.04	388.579	5937.77	3.75223	105.875
42	79.433	5969.58	432.029	5985.2	4.13938	107.732
43	63.096	6030.33	487.119	6049.98	4.61822	109.759
44	50.119	6099.15	537.169	6122.76	5.0332	112.251
45	39.811	6163.1	595.906	6191.84	5.52273	114.423
46	31.623	6244.26	661.16	6279.17	6.04412	116.825
47	25.119	6334.91	727.199	6376.51	6.54845	119.262
48	19.953	6432.14	797.445	6481.38	7.06736	121.984
49	15.849	6545.88	870.766	6603.55	7.57728	124.856
50	12.589	6659.87	948.782	6727.11	8.10794	127.223
51	10	6779.33	1032.56	6857.51	8.66015	130.126
52	7.9433	6909.6	1129.14	7001.26	9.28101	133.258
53	6.3096	7044.3	1230.19	7150.91	9.906	136.545
54	5.0119	7181.32	1354.88	7308.01	10.6843	139.737
55	3.9811	7320.1	1499.65	7472.13	11.5779	142.864
56	3.1623	7478.75	1673.5	7663.7	12.6131	146.186
57	2.5119	7642.54	1878.52	7870.02	13.8094	149.438
58	1.9953	7817.5	2123.08	8100.66	15.1939	152.71
59	1.5849	8010.04	2420.35	8367.73	16.813	156.222
60	1.2589	8228	2762.61	8679.4	18.5598	159.869
61	1	8454.56	3208.37	9042.85	20.7809	166.048
62	0.79433	8701.84	3726.08	9466.03	23.1803	170.085
63	0.63096	9005.04	4339.91	9996.27	25.7314	174.422
64	0.50119	9295.83	5078.4	10592.6	28.6482	178.819
65	0.39811	9645.68	5996.69	11357.8	31.8691	183.787
66	0.31623	10015.4	7089.16	12270.5	35.2917	189.094
67	0.25119	10450.3	8444.4	13435.7	38.94	195.421
68	0.19953	11014.5	10074.4	14926.9	42.4476	203.013
69	0.15849	11543.4	12084.2	16711.6	46.3113	211.025
70	0.12589	12219.6	14501.3	18963.3	49.8808	220.362
71	0.1	13070	17422.6	21780	53.1237	231.384