File: data/Z_s14_1.txt
Index	Frequency (Hz)	Z' (Ω)	-Z'' (Ω)	Z (Ω)	-Phase (°)	Time (s)
1	1000000	2823.82	2628.86	3858.09	42.9522	16.2524
2	794330	3313.43	2545.39	4178.25	37.5316	18.0295
3	630960	3925.15	2370.05	4585.19	31.1241	20.6915
4	501190	4432.48	2207.95	4951.96	26.4792	23.7386
5	398110	4932.3	1962.13	5308.25	21.6933	25.6456
6	316230	5256.53	1748.61	5539.74	18.3999	28.2126
7	251190	5411.62	1487.94	5612.45	15.3737	30.7747
8	199530	5641.54	1324.67	5794.98	13.2141	32.7017
9	158490	5828.71	1169.63	5944.9	11.3467	34.7488
10	125890	5978.79	1025.32	6066.07	9.73119	36.8608
11	100000	6099.4	893.788	6164.54	8.33662	38.8128
12	79433	6197.34	776.291	6245.77	7.1398	40.6549
13	63096	6282.78	672.049	6318.62	6.10553	42.4519
14	50119	6351.09	580.069	6377.53	5.21856	44.444
15	39811	6406.72	498.408	6426.08	4.44834	46.306
16	31623	6447.61	428.988	6461.86	3.80653	48.178
17	25119	6485.42	375.047	6496.26	3.30968	49.8701
18	19953	6517.25	328.715	6525.54	2.88742	51.9221
19	15849	6547.8	290.101	6554.22	2.53684	53.7541
20	12589	6573.18	258.767	6578.27	2.25441	56.0212
21	10000	6599.21	233.711	6603.35	2.02828	58.7682
22	7943.3	6617.81	214.638	6621.29	1.85765	61.3303
23	6309.6	6640.1	199.409	6643.09	1.72013	63.7673
24	5011.9	6664.03	188.404	6666.69	1.61942	65.9143
25	3981.1	6683.19	180.966	6685.63	1.55107	68.0264
26	3162.3	6701.5	175.881	6703.81	1.50338	70.0734
27	2511.9	6722.53	174.051	6724.78	1.4831	71.9705
28	1995.3	6744.4	173.709	6746.64	1.47538	74.2925
29	1584.9	6764.08	176.371	6766.38	1.49363	76.0895
30	1258.9	6787.53	182.126	6789.98	1.53702	78.0916
31	1000	6812.2	188.165	6814.8	1.58221	80.0436
32	794.33	6835.04	196.609	6837.87	1.64765	82.1056
33	630.96	6861.02	207.79	6864.17	1.73471	84.2127
34	501.19	6884.72	221.46	6888.28	1.84239	85.8397
35	398.11	6915.12	238.254	6919.22	1.9733	88.1418
36	316.23	6947.21	256.996	6951.96	2.11856	90.1988
37	251.19	6973.58	278.999	6979.16	2.29107	92.2958
38	199.53	7008.76	306.163	7015.44	2.50125	94.0929
39	158.49	7044.76	337.664	7052.84	2.74416	96.1449
40	125.89	7089.67	373.348	7099.49	3.01446	98.4669
41	100	7133.99	414.394	7146.02	3.32442	101.229
42	79.433	7190.77	464.127	7205.73	3.69302	103.541
43	63.096	7258.66	511.368	7276.65	4.02979	105.713
44	50.119	7326.53	580.417	7349.49	4.52958	108.17
45	39.811	7408.62	630.347	7435.39	4.86318	110.797
46	31.623	7491.59	698.169	7524.06	5.32422	114.244
47	25.119	7596.94	761.862	7635.05	5.72678	116.586
48	19.953	7705.97	834.633	7751.04	6.1816	119.068
49	15.849	7823.39	904.251	7875.48	6.59316	121.86
50	12.589	7940.76	983.25	8001.4	7.05862	124.617
51	10	8067.09	1071.21	8137.9	7.5639	127.494
52	7.9433	8203.8	1163.3	8285.87	8.07077	130.277
53	6.3096	8342.81	1260.65	8437.52	8.59274	133.434
54	5.0119	8491.27	1386.22	8603.67	9.27188	136.771
55	3.9811	8646.59	1531.34	8781.15	10.0431	140.073
56	3.1623	8806.13	1700.19	8968.75	10.9276	143.475
57	2.5119	8980.21	1903.12	9179.65	11.9653	146.962
58	1.9953	9158.48	2144.18	9406.13	13.1768	151.029
59	1.5849	9356.3	2440.84	9669.43	14.6213	154.766
60	1.2589	9563.39	2782.22	9959.87	16.221	158.693
61	1	9806.9	3252.65	10332.2	18.3491	163.175
62	0.79433	10057.9	3758.38	10737.1	20.4895	166.962
63	0.63096	10351.3	4399.78	11247.5	23.0278	171.004
64	0.50119	10618.9	5174.08	11812.3	25.9778	175.511
65	0.39811	10937.8	6081.68	12514.8	29.0752	180.223
66	0.31623	11297.8	7233.97	13415.3	32.6314	185.681
67	0.25119	11770	8635.15	14597.9	36.266	191.728
68	0.19953	12213	10271.6	15958.2	40.0653	199.23
69	0.15849	12850.7	12372.5	17838.7	43.9138	207.142
70	0.12589	13496.8	14873.1	20084.2	47.7775	215.964
71	0.1	14264.6	18156	23089.3	51.8445	226.701