File: data/Z_s17_1.txt
Index	Frequency (Hz)	Z' (Ω)	-Z'' (Ω)	Z (Ω)	-Phase (°)	Time (s)
1	1000000	2456.77	1817.82	3056.17	36.4986	76.2655
2	794330	2744.74	1628.66	3191.57	30.6838	79.2976
3	630960	3059.04	1633.17	3467.7	28.097	81.9746
4	501190	3364.08	1560.76	3708.51	24.8888	84.6267
5	398110	3694.52	1440	3965.24	21.2942	89.6488
6	316230	3945.94	1340.76	4167.5	18.7668	94.4609
7	251190	4094.87	1183.47	4262.46	16.12	98.8479
8	199530	4301.57	1085.99	4436.54	14.1691	103.34
9	158490	4473.31	981.107	4579.64	12.3705	110.182
10	125890	4616.98	875.626	4699.27	10.7388	116.144
11	100000	4735.79	774.093	4798.64	9.28324	121.861
12	79433	4831.04	679.73	4878.62	8.00897	124.298
13	63096	4911.58	593.319	4947.28	6.88796	127.05
14	50119	4976.47	515.612	5003.11	5.9153	133.128
15	39811	5029.44	446.705	5049.24	5.07558	139.61
16	31623	5067.53	386.807	5082.27	4.36494	144.132
17	25119	5102.63	338.831	5113.87	3.79905	147.334
18	19953	5134.67	298.044	5143.32	3.32203	150.941
19	15849	5159.8	263.826	5166.54	2.92705	155.133
20	12589	5185.48	236.227	5190.86	2.60833	157.64
21	10000	5204.86	214.122	5209.26	2.35575	160.302
22	7943.3	5222.61	196.942	5226.32	2.15957	163.829
23	6309.6	5241.22	183.14	5244.42	2.00123	166.216
24	5011.9	5258.53	173.38	5261.39	1.88843	179.083
25	3981.1	5279.14	166.772	5281.77	1.80942	182.12
26	3162.3	5292.64	162.563	5295.13	1.75928	184.648
27	2511.9	5314.04	161.028	5316.48	1.73566	188.48
28	1995.3	5330.29	161.346	5332.73	1.73379	193.387
29	1584.9	5350.83	164.097	5353.35	1.75657	198.514
30	1258.9	5367.79	167.942	5370.42	1.79203	201.741
31	1000	5389.38	175.123	5392.23	1.86111	204.888
32	794.33	5412.17	183.36	5415.28	1.94039	208.735
33	630.96	5435	193.935	5438.46	2.04359	212.727
34	501.19	5460.41	206.574	5464.31	2.16653	216.634
35	398.11	5486	221.326	5490.47	2.31027	219.071
36	316.23	5512.88	238.325	5518.03	2.47539	222.098
37	251.19	5541.37	257.742	5547.36	2.66304	224.3
38	199.53	5572.67	280.59	5579.73	2.88247	226.847
39	158.49	5603.19	307.139	5611.6	3.13752	229.089
40	125.89	5639.98	338.037	5650.11	3.42996	231.646
41	100	5677.35	374.071	5689.66	3.76968	233.743
42	79.433	5721.71	415.843	5736.8	4.15684	235.555
43	63.096	5771.26	463.453	5789.84	4.59121	237.358
44	50.119	5826.61	519.834	5849.76	5.09827	239.67
45	39.811	5894.14	581.759	5922.78	5.63691	241.967
46	31.623	5964.23	649.553	5999.5	6.21548	245.009
47	25.119	6045.93	726.413	6089.41	6.85119	247.561
48	19.953	6136.36	812.098	6189.87	7.53882	250.238
49	15.849	6239.03	904.932	6304.31	8.25284	253.08
50	12.589	6349.25	1007.27	6428.66	9.01449	255.742
51	10	6467.86	1120.58	6564.21	9.82914	259.269
52	7.9433	6595.58	1253.27	6713.59	10.7589	262.621
53	6.3096	6733.2	1396.42	6876.47	11.7166	265.833
54	5.0119	6877.19	1568.23	7053.73	12.8457	268.91
55	3.9811	7032.75	1772.83	7252.76	14.1484	271.867
56	3.1623	7199.51	2015.86	7476.4	15.6423	275.144
57	2.5119	7382.91	2304.55	7734.23	17.3356	278.561
58	1.9953	7585.64	2650.3	8035.3	19.2586	282.978
59	1.5849	7809.73	3068.94	8391.08	21.453	287.705
60	1.2589	8058.3	3566.66	8812.34	23.8745	292.508
61	1	8344.31	4155.37	9321.73	26.4728	297.03
62	0.79433	8665.87	4876.4	9943.67	29.3671	300.917
63	0.63096	9039.54	5739.67	10707.8	32.4136	305.909
64	0.50119	9453.29	6754.83	11618.6	35.5476	310.676
65	0.39811	9916.74	8010	12747.6	38.9287	315.838
66	0.31623	10389.2	9519.94	14091.3	42.5	321.31
67	0.25119	11022.4	11359.8	15828.4	45.8636	327.492
68	0.19953	11721.1	13526.3	17898.2	49.0898	335.079
69	0.15849	12488.5	16284.2	20521.7	52.515	343.291
70	0.12589	13432.2	19599	23760.1	55.5752	352.644
71	0.1	14357.9	23412.4	27464.4	58.4808	375.813