File: data/Z_s17_1.2.txt
Index	Frequency (Hz)	Z' (Ω)	-Z'' (Ω)	Z (Ω)	-Phase (°)	Time (s)
1	1000000	2525.57	1741.67	3067.89	34.5907	25.7976
2	794330	2779.31	1611.71	3212.81	30.1092	27.3446
3	630960	3081.16	1526.73	3438.67	26.3585	29.9117
4	501190	3372.55	1441.01	3667.51	23.1359	31.9237
5	398110	3671.5	1317.38	3900.69	19.7386	49.061
6	316230	3901.51	1222.71	4088.62	17.4006	51.1381
7	251190	4028.65	1078.97	4170.64	14.9933	58.8452
8	199530	4216.9	988.052	4331.11	13.1869	60.6172
9	158490	4373.87	890.912	4463.68	11.5131	62.3893
10	125890	4503.62	794.786	4573.22	10.0083	64.0413
11	100000	4611.07	702.738	4664.31	8.66533	66.1883
12	79433	4696.09	616.932	4736.44	7.48416	68.1554
13	63096	4768.97	539.189	4799.36	6.45057	71.0874
14	50119	4831.91	469.436	4854.66	5.54907	75.4895
15	39811	4878.75	406.833	4895.68	4.7668	77.2515
16	31623	4915.17	352.275	4927.77	4.09943	78.9686
17	25119	4949.59	309.233	4959.24	3.57499	80.8156
18	19953	4978.14	271.569	4985.54	3.12252	82.5226
19	15849	4999.87	239.74	5005.62	2.74519	84.0297
20	12589	5025.85	214.237	5030.41	2.44087	86.9517
21	10000	5042.15	193.229	5045.86	2.19465	89.3138
22	7943.3	5064.08	176.815	5067.16	1.9997	91.3558
23	6309.6	5078.77	163.371	5081.4	1.84242	93.0428
24	5011.9	5096.1	153.517	5098.41	1.72548	94.6949
25	3981.1	5114.18	146.067	5116.26	1.63599	96.4019
26	3162.3	5129.68	140.799	5131.62	1.57225	97.9089
27	2511.9	5144.05	137.386	5145.88	1.52987	99.891
28	1995.3	5161.18	136.045	5162.97	1.50992	101.538
29	1584.9	5174.65	136.473	5176.45	1.51073	104.235
30	1258.9	5194.41	138.169	5196.24	1.52368	105.632
31	1000	5209.6	141.225	5211.51	1.55283	107.039
32	794.33	5228.04	146.191	5230.08	1.60174	108.921
33	630.96	5246.55	152.564	5248.77	1.66563	111.238
34	501.19	5268.11	160.714	5270.56	1.74738	128.51
35	398.11	5290.47	170.473	5293.22	1.84558	130.388
36	316.23	5309.68	182.405	5312.81	1.96752	132.72
37	251.19	5329.37	196.981	5333.01	2.11677	134.352
38	199.53	5351.51	214.524	5355.81	2.29557	136.279
39	158.49	5376.33	235.761	5381.5	2.5109	138.061
40	125.89	5404.13	260.587	5410.41	2.76067	141.488
41	100	5433.07	289.781	5440.79	3.05306	143.895
42	79.433	5470.75	323.82	5480.33	3.38745	146.917
43	63.096	5508.98	362.063	5520.87	3.7602	149.319
44	50.119	5553.31	408.333	5568.31	4.20536	152.836
45	39.811	5604.45	455.599	5622.94	4.64749	154.858
46	31.623	5663.56	509.833	5686.47	5.14389	157.255
47	25.119	5726.8	567.902	5754.89	5.66326	160.712
48	19.953	5803.13	635.471	5837.82	6.24927	164.149
49	15.849	5878.02	705.174	5920.17	6.84097	167.456
50	12.589	5968.98	784.801	6020.35	7.49028	169.823
51	10	6057.37	872.734	6119.91	8.19865	172.44
52	7.9433	6156.11	975.204	6232.88	9.00155	175.312
53	6.3096	6261.38	1092.22	6355.93	9.895	177.909
54	5.0119	6371.33	1230.85	6489.13	10.934	180.931
55	3.9811	6492.91	1395.15	6641.11	12.1269	184.754
56	3.1623	6625.1	1590.23	6813.28	13.4975	188.016
57	2.5119	6769.13	1823.69	7010.48	15.0782	191.568
58	1.9953	6926.05	2097.85	7236.79	16.8512	194.84
59	1.5849	7107.35	2429.82	7511.22	18.8742	199.492
60	1.2589	7300.86	2835.25	7832.06	21.2235	203.289
61	1	7521.94	3303.42	8215.36	23.7097	207.921
62	0.79433	7769.81	3887.87	8688.24	26.5826	212.503
63	0.63096	8056.76	4564.06	9259.71	29.5311	217.055
64	0.50119	8372.13	5391.03	9957.7	32.7785	222.132
65	0.39811	8725.05	6398.6	10819.8	36.2548	227.304
66	0.31623	9128.21	7650.52	11910.3	39.967	232.391
67	0.25119	9538.87	9141.82	13212.2	43.7824	239.559
68	0.19953	10083.5	10995.1	14918.8	47.4764	247.081
69	0.15849	10642.2	13128	16899.7	50.9701	256.028
70	0.12589	11368.8	15835.6	19494	54.3245	265.795
71	0.1	12100.2	19183.6	22680.9	57.7579	277.322