File: data/Z_s11_1.3.txt
Index	Frequency (Hz)	Z' (Ω)	-Z'' (Ω)	Z (Ω)	-Phase (°)	Time (s)
1	1000000	2775.7	1944.4	3388.98	35.0116	21.6045
2	794330	3055.35	1769.95	3530.98	30.0835	23.2516
3	630960	3388.86	1665.46	3776	26.1718	25.2336
4	501190	3703.53	1563.44	4020.01	22.8869	26.9906
5	398110	4034.78	1413.64	4275.26	19.3087	28.9727
6	316230	4278.66	1296.87	4470.88	16.8622	30.7697
7	251190	4404.63	1121.63	4545.2	14.2866	32.5367
8	199530	4602.1	1013.36	4712.35	12.4181	34.2338
9	158490	4753.14	899.815	4837.56	10.7198	36.1208
10	125890	4879.16	790.582	4942.8	9.20378	37.9378
11	100000	4977.96	688.623	5025.37	7.87598	39.8649
12	79433	5058.06	596.16	5093.08	6.72206	41.5969
13	63096	5119.67	513.782	5145.38	5.73071	43.3839
14	50119	5170.77	441.812	5189.61	4.88373	45.091
15	39811	5213.77	378.86	5227.51	4.15611	46.748
16	31623	5241.54	325.132	5251.62	3.5495	48.52
17	25119	5270.31	283.552	5277.93	3.07964	50.152
18	19953	5291.32	248.116	5297.13	2.6847	51.9891
19	15849	5313.05	218.969	5317.56	2.36001	53.5711
20	12589	5332.04	195.334	5335.61	2.09803	55.4531
21	10000	5347	176.569	5349.91	1.89133	57.0952
22	7943.3	5363.14	162.04	5365.59	1.73058	58.8672
23	6309.6	5379.43	150.913	5381.55	1.60694	60.4392
24	5011.9	5394.57	142.788	5396.46	1.5162	62.3363
25	3981.1	5406.76	136.6	5408.48	1.44725	63.9983
26	3162.3	5421.7	132.805	5423.33	1.40318	65.8153
27	2511.9	5433.59	130.893	5435.17	1.37996	67.4924
28	1995.3	5450.69	130.666	5452.26	1.37326	69.2644
29	1584.9	5465.8	132.037	5467.39	1.38382	70.8464
30	1258.9	5483.59	135.562	5485.26	1.41614	72.5285
31	1000	5498.01	140.029	5499.79	1.45895	74.2455
32	794.33	5514.76	146.764	5516.71	1.52445	76.0475
33	630.96	5531.56	154.178	5533.7	1.59656	77.6646
34	501.19	5551.2	164.417	5553.63	1.69651	79.4066
35	398.11	5570.06	176.042	5572.84	1.81024	81.0236
36	316.23	5590.56	190.297	5593.8	1.94954	82.8207
37	251.19	5609.08	208.001	5612.94	2.12372	84.6727
38	199.53	5632.81	227.627	5637.41	2.31411	86.2547
39	158.49	5659.14	251.568	5664.73	2.54531	88.1268
40	125.89	5686.23	280.497	5693.14	2.82407	89.8838
41	100	5717.8	313.171	5726.37	3.13503	91.6858
42	79.433	5753.8	349.982	5764.44	3.4808	93.2428
43	63.096	5797.69	396.359	5811.22	3.91094	95.2599
44	50.119	5848.99	443.79	5865.81	4.33898	97.1569
45	39.811	5902.66	498.378	5923.66	4.8262	99.124
46	31.623	5968.6	557.391	5994.57	5.33522	101.171
47	25.119	6042.91	621.375	6074.78	5.87092	103.103
48	19.953	6124.5	692.23	6163.49	6.44857	105.425
49	15.849	6220.56	767.197	6267.69	7.03093	107.592
50	12.589	6322.31	845.21	6378.56	7.61454	110.839
51	10	6428.97	928.867	6495.72	8.22129	113.331
52	7.9433	6545.47	1020.38	6624.53	8.8606	115.998
53	6.3096	6671.79	1123.72	6765.76	9.56048	118.555
54	5.0119	6796.28	1240.05	6908.49	10.3404	121.377
55	3.9811	6929.94	1376.08	7065.24	11.2311	124.264
56	3.1623	7075.04	1534.5	7239.54	12.2373	127.206
57	2.5119	7224.24	1722.6	7426.78	13.4116	130.044
58	1.9953	7388.63	1946.16	7640.64	14.7565	133.076
59	1.5849	7560.88	2215.5	7878.79	16.3317	136.328
60	1.2589	7747.84	2545.02	8155.13	18.1843	139.745
61	1	7943.42	2930.33	8466.69	20.2491	143.462
62	0.79433	8177.93	3410.14	8860.45	22.6358	147.059
63	0.63096	8403.15	3966.12	9292.09	25.2664	150.736
64	0.50119	8659.3	4671.7	9839.12	28.3469	154.833
65	0.39811	8928.56	5562.34	10519.4	31.9222	159.68
66	0.31623	9240.69	6621.31	11368	35.6231	164.872
67	0.25119	9675.65	7951.27	12523.6	39.4128	170.599
68	0.19953	10038.9	9542.93	13850.9	43.549	177.236
69	0.15849	10508	11487.8	15568.8	47.5506	184.979
70	0.12589	11104.6	13906.6	17796.3	51.3922	194.016
71	0.1	11866.4	16762.2	20537.4	54.7043	204.538