File: data/Z_s16_1.5.txt
Index	Frequency (Hz)	Z' (Ω)	-Z'' (Ω)	Z (Ω)	-Phase (°)	Time (s)
1	1000000	4074.32	3953.62	5677.25	44.1386	21.5555
2	794330	4722.31	3629.24	5955.8	37.5434	23.5626
3	630960	5623.12	3390.59	6566.24	31.0889	25.5246
4	501190	6388.97	3180.05	7136.64	26.4614	27.6417
5	398110	7194.99	2959.51	7779.88	22.3588	29.7437
6	316230	7723.26	2710.63	8185.12	19.3395	31.5407
7	251190	8016.41	2343.27	8351.87	16.2941	34.7198
8	199530	8409.49	2095.73	8666.69	13.9937	36.5018
9	158490	8722.67	1855.16	8917.76	12.0069	38.2638
10	125890	8970.32	1632.15	9117.6	10.3121	40.4259
11	100000	9173.03	1414.23	9281.41	8.76444	42.0879
12	79433	9336.85	1218.47	9416.02	7.43514	43.6849
13	63096	9462.13	1047.02	9519.88	6.31428	45.257
14	50119	9562.75	894.644	9604.51	5.34476	46.839
15	39811	9648.85	761.021	9678.82	4.50968	48.356
16	31623	9708.23	647.278	9729.78	3.81445	50.0581
17	25119	9754.17	561.752	9770.33	3.29608	51.5351
18	19953	9804.45	486.113	9816.49	2.83845	53.0521
19	15849	9844.91	421.696	9853.93	2.4527	54.6891
20	12589	9870.9	370.655	9877.86	2.15046	56.3062
21	10000	9902.55	327.888	9907.98	1.89646	61.2643
22	7943.3	9934.64	292.789	9938.96	1.68811	62.5863
23	6309.6	9955.29	265.381	9958.83	1.52699	64.0233
24	5011.9	9984.69	242.025	9987.62	1.38855	65.4203
25	3981.1	10004.3	223.809	10006.8	1.28157	66.8324
26	3162.3	10022.4	209.185	10024.6	1.19569	68.1394
27	2511.9	10044.9	198.905	10046.8	1.13441	69.5214
28	1995.3	10069.2	190.226	10071	1.08229	70.9584
29	1584.9	10094	184.879	10095.7	1.0493	72.2955
30	1258.9	10114.8	181.466	10116.4	1.02781	74.0475
31	1000	10133.6	179.44	10135.2	1.01446	75.4145
32	794.33	10153.6	179.627	10155.2	1.01351	76.9666
33	630.96	10171.4	181.784	10173	1.02389	78.3536
34	501.19	10195.2	186.833	10196.9	1.04986	79.8606
35	398.11	10217.2	194.076	10219.1	1.0882	81.2776
36	316.23	10240	203.452	10242	1.13822	82.7047
37	251.19	10262.6	215.562	10264.8	1.2033	84.1167
38	199.53	10290.5	230.384	10293	1.28253	85.5187
39	158.49	10310.4	247.899	10313.4	1.37733	87.0707
40	125.89	10340.4	266.357	10343.8	1.47555	88.6778
41	100	10374.8	298.631	10379.1	1.64877	90.2798
42	79.433	10403.5	325.078	10408.6	1.78973	91.9218
43	63.096	10459.1	374.686	10465.8	2.05168	93.5839
44	50.119	10472.1	397.604	10479.6	2.17436	95.3559
45	39.811	10545.8	437.831	10554.8	2.3774	96.9879
46	31.623	10608.3	483.998	10619.3	2.61228	98.625
47	25.119	10664.6	530.139	10677.7	2.84585	100.402
48	19.953	10738	584.857	10753.9	3.11759	102.374
49	15.849	10824.9	632.69	10843.4	3.34499	104.851
50	12.589	10893.4	694.563	10915.5	3.64824	107.418
51	10	10989.9	766.017	11016.6	3.98716	110.14
52	7.9433	11084.2	840.639	11116	4.33707	113.112
53	6.3096	11175.9	912.509	11213.1	4.66782	116.309
54	5.0119	11272.6	1007.57	11317.5	5.10769	119.466
55	3.9811	11378.3	1125.33	11433.8	5.64828	122.383
56	3.1623	11498.1	1256.82	11566.6	6.23805	125.965
57	2.5119	11615.3	1411.39	11700.8	6.92812	130.013
58	1.9953	11743.1	1604.51	11852.2	7.78039	133.86
59	1.5849	11895.1	1831.27	12035.2	8.75208	138.292
60	1.2589	12025.3	2097.02	12206.8	9.89197	141.784
61	1	12207.2	2425.69	12445.9	11.2388	147.543
62	0.79433	12412.9	2825.36	12730.4	12.8229	151.09
63	0.63096	12600.6	3295.1	13024.3	14.6549	155.632
64	0.50119	12811.5	3885.09	13387.7	16.8699	159.759
65	0.39811	13005.4	4607.92	13797.6	19.5096	164.506
66	0.31623	13289.2	5489.19	14378.2	22.4434	169.758
67	0.25119	13575.9	6678.85	15129.8	26.1956	175.575
68	0.19953	13914.4	7915.86	16008.5	29.6354	182.148
69	0.15849	14388.7	9492.15	17237.6	33.4126	190.01
70	0.12589	14780.6	11516.9	18737.8	37.9255	199.062
71	0.1	15455.2	14136.7	20945.4	42.4488	209.774