File: data/Z_s1_1.4.txt
Index	Frequency (Hz)	Z' (Ω)	-Z'' (Ω)	Z (Ω)	-Phase (°)	Time (s)
1	1000000	2493.11	1660.75	2995.61	33.6691	83.7687
2	794330	2738.57	1520.58	3132.4	29.0411	85.8657
3	630960	3017.08	1428.21	3338.05	25.3317	87.6577
4	501190	3278.16	1323.66	3535.31	21.9879	89.4848
5	398110	3557.4	1181.23	3748.39	18.3686	91.4168
6	316230	3757.92	1082.24	3910.65	16.0659	93.1238
7	251190	3854.79	944.551	3968.82	13.7681	95.0009
8	199530	4016.32	854.228	4106.16	12.0073	96.7279
9	158490	4146.03	761.301	4215.35	10.4048	98.5949
10	125890	4252.34	671.497	4305.04	8.97361	100.342
11	100000	4337.23	587.842	4376.89	7.71848	102.324
12	79433	4407.83	512.502	4437.52	6.63205	105.381
13	63096	4463.43	444.606	4485.52	5.68853	109.368
14	50119	4509.27	385.103	4525.68	4.88137	111.485
15	39811	4545.73	332.66	4557.89	4.18548	113.812
16	31623	4575.5	288.711	4584.6	3.61054	116.024
17	25119	4601.37	253.372	4608.34	3.15178	117.751
18	19953	4624.28	223.323	4629.67	2.76487	120.113
19	15849	4642.08	198.195	4646.31	2.44477	121.735
20	12589	4660.93	177.886	4664.32	2.18566	123.622
21	10000	4676.71	162.197	4679.52	1.98632	125.374
22	7943.3	4692.71	149.354	4695.08	1.82293	127.166
23	6309.6	4708.36	140.012	4710.44	1.7033	128.764
24	5011.9	4720.58	132.797	4722.44	1.6114	130.396
25	3981.1	4735.44	128.064	4737.17	1.54911	132.078
26	3162.3	4748.7	125.561	4750.36	1.51461	133.67
27	2511.9	4761.07	124.587	4762.7	1.49897	135.457
28	1995.3	4775.16	126.005	4776.82	1.51154	136.884
29	1584.9	4789.48	128.842	4791.21	1.54095	138.586
30	1258.9	4805.38	133.292	4807.22	1.58887	140.188
31	1000	4820.77	141.429	4822.84	1.68044	141.92
32	794.33	4836.21	150.511	4838.55	1.78257	143.557
33	630.96	4853.2	162.049	4855.9	1.9124	145.349
34	501.19	4873.48	176.577	4876.68	2.07504	147.056
35	398.11	4893.21	193.019	4897.01	2.25894	148.683
36	316.23	4916.12	213.931	4920.77	2.49172	150.42
37	251.19	4944.28	237.126	4949.96	2.74579	152.157
38	199.53	4970.7	263.582	4977.68	3.0354	153.904
39	158.49	5002.41	294.448	5011.07	3.36862	155.901
40	125.89	5039.07	327.862	5049.72	3.72265	158.163
41	100	5083.93	365.278	5097.04	4.10961	159.755
42	79.433	5128.49	405.421	5144.49	4.51999	161.492
43	63.096	5182.56	448.234	5201.9	4.94315	163.154
44	50.119	5242.2	500.731	5266.06	5.45629	165.101
45	39.811	5312.34	550.677	5340.81	5.91814	166.743
46	31.623	5383.1	605.844	5417.09	6.42137	168.645
47	25.119	5470.7	665.179	5510.99	6.93253	170.342
48	19.953	5558.23	731.19	5606.12	7.49428	172.504
49	15.849	5651.66	800.784	5708.11	8.06457	174.891
50	12.589	5753.46	877.47	5819.99	8.67145	177.268
51	10	5864.86	961.626	5943.17	9.31159	179.81
52	7.9433	5979.34	1059.65	6072.51	10.0495	182.668
53	6.3096	6105.09	1166.31	6215.5	10.8154	185.3
54	5.0119	6235.75	1291.98	6368.19	11.7054	188.087
55	3.9811	6377.8	1439.11	6538.14	12.7155	190.909
56	3.1623	6523.64	1609.06	6719.15	13.8555	193.911
57	2.5119	6686.7	1812.85	6928.08	15.169	196.788
58	1.9953	6854.52	2046.33	7153.46	16.6223	199.72
59	1.5849	7038.08	2340.08	7416.91	18.3913	202.737
60	1.2589	7224.03	2683.72	7706.43	20.3799	206.084
61	1	7445.83	3099.1	8065.04	22.598	209.751
62	0.79433	7680.02	3614.2	8487.94	25.2016	213.488
63	0.63096	7930.7	4226.16	8986.46	28.0525	217.26
64	0.50119	8211.54	4985.99	9606.75	31.2658	221.397
65	0.39811	8495.68	5886.41	10335.7	34.717	225.914
66	0.31623	8841.77	7031.66	11297	38.4944	230.921
67	0.25119	9266.07	8468.44	12552.9	42.4248	236.769
68	0.19953	9748.43	10091.8	14031.3	45.9915	243.886
69	0.15849	10348.3	12204.9	16001.4	49.7059	252.168
70	0.12589	11000	14674.8	18339.8	53.1455	261.12
71	0.1	11668.6	17777.7	21265.1	56.7206	271.817