File: data/Z_s1_1.5.txt
Index	Frequency (Hz)	Z' (Ω)	-Z'' (Ω)	Z (Ω)	-Phase (°)	Time (s)
1	1000000	2507.47	1727.82	3045.12	34.5696	15.5874
2	794330	2788.74	1585.39	3207.88	29.6181	17.3144
3	630960	3059.23	1488.72	3402.23	25.949	19.0515
4	501190	3339.62	1388.67	3616.83	22.5783	20.9335
5	398110	3619.07	1251.63	3829.39	19.0776	22.8955
6	316230	3829.09	1141.2	3995.53	16.5959	24.7326
7	251190	3936.52	986.334	4058.21	14.0664	26.3996
8	199530	4103.31	890.674	4198.87	12.2468	28.1666
9	158490	4238.43	792.606	4311.9	10.5922	29.8987
10	125890	4344.89	697.598	4400.53	9.12133	31.4707
11	100000	4435.65	610.183	4477.43	7.83264	33.3527
12	79433	4504.35	531.288	4535.58	6.72694	34.9748
13	63096	4560.47	460.562	4583.67	5.76676	36.7668
14	50119	4607.97	398.693	4625.19	4.94506	38.3388
15	39811	4647.71	344.512	4660.46	4.2393	40.1909
16	31623	4674.65	298.157	4684.15	3.64948	41.8029
17	25119	4700.7	261.134	4707.95	3.17963	43.6099
18	19953	4723.6	229.855	4729.19	2.78588	45.272
19	15849	4741.74	203.996	4746.12	2.46342	47.169
20	12589	4761.48	182.974	4765	2.20068	48.796
21	10000	4774.34	166.539	4777.24	1.99779	50.6731
22	7943.3	4789.5	152.701	4791.93	1.82611	52.4301
23	6309.6	4806.8	142.568	4808.92	1.69888	54.1221
24	5011.9	4817.57	134.781	4819.46	1.60254	55.7842
25	3981.1	4830.53	129.356	4832.26	1.53395	57.6062
26	3162.3	4842.38	126.501	4844.04	1.49644	59.4232
27	2511.9	4859.25	124.996	4860.86	1.47352	61.6503
28	1995.3	4870.43	125.711	4872.05	1.47854	63.0823
29	1584.9	4884.27	128.643	4885.96	1.50873	64.5043
30	1258.9	4899.51	132.875	4901.31	1.55348	65.7663
31	1000	4913.35	139.822	4915.34	1.63006	67.2784
32	794.33	4928.59	148.476	4930.83	1.72554	69.3354
33	630.96	4945.96	159.525	4948.53	1.84735	70.7074
34	501.19	4963.34	173.825	4966.38	2.00578	72.1445
35	398.11	4982.4	190.14	4986.03	2.18548	73.5365
36	316.23	5004.5	209.408	5008.88	2.39608	75.1085
37	251.19	5027.91	232.641	5033.29	2.64917	76.5805
38	199.53	5057.54	258.656	5064.15	2.92771	79.0976
39	158.49	5085.61	287.942	5093.75	3.24057	80.5846
40	125.89	5119.98	320.576	5130.01	3.58277	81.9716
41	100	5159.68	357.445	5172.05	3.96292	83.2787
42	79.433	5206.03	398.638	5221.27	4.37873	84.9857
43	63.096	5265.6	442.218	5284.14	4.80057	86.4727
44	50.119	5319.14	494.731	5342.1	5.31377	88.2798
45	39.811	5384.19	542.964	5411.5	5.75847	89.8618
46	31.623	5452.77	596.532	5485.3	6.24332	91.4938
47	25.119	5535.36	657.493	5574.27	6.77389	93.0758
48	19.953	5623.44	723.825	5669.84	7.33454	95.2129
49	15.849	5716.58	791.903	5771.17	7.88684	98.995
50	12.589	5817.35	870.752	5882.15	8.51295	101.762
51	10	5925.19	954.806	6001.63	9.15415	104.254
52	7.9433	6039.9	1051.57	6130.75	9.8764	107.021
53	6.3096	6160.93	1159.64	6269.11	10.6597	109.813
54	5.0119	6290.49	1283.09	6420.01	11.5286	112.42
55	3.9811	6425.45	1427.51	6582.11	12.5257	115.187
56	3.1623	6575.69	1597.56	6766.97	13.6555	117.889
57	2.5119	6734.13	1800	6970.55	14.965	120.676
58	1.9953	6899.73	2036.63	7194.03	16.4453	123.753
59	1.5849	7078.22	2319.6	7448.6	18.1445	127.03
60	1.2589	7275.07	2664.13	7747.53	20.1127	130.483
61	1	7478.05	3074.75	8085.5	22.351	134.19
62	0.79433	7723.38	3577.9	8511.87	24.8562	137.797
63	0.63096	7971.02	4189.43	9004.91	27.7256	141.794
64	0.50119	8239.03	4937.83	9605.4	30.9352	145.831
65	0.39811	8520.37	5837.87	10328.5	34.4176	150.443
66	0.31623	8867.78	6956.79	11271	38.1143	155.61
67	0.25119	9249.51	8364.69	12470.8	42.1243	161.662
68	0.19953	9755.7	9991.27	13964.2	45.6835	168.429
69	0.15849	10324.3	12024	15848.3	49.3493	176.051
70	0.12589	10874.4	14523.5	18143.4	53.1761	184.879
71	0.1	11719.1	17682.9	21213.7	56.466	195.411