File: data/Z_s14_1.3.txt
Index	Frequency (Hz)	Z' (Ω)	-Z'' (Ω)	Z (Ω)	-Phase (°)	Time (s)
1	1000000	3313.53	2589.61	4205.42	38.0085	21.4455
2	794330	3697.8	2346.65	4379.55	32.3995	23.1925
3	630960	4180.46	2203.43	4725.6	27.7928	25.0696
4	501190	4610.14	2072.27	5054.47	24.2041	26.9616
5	398110	5095.74	1897.27	5437.48	20.4216	28.7437
6	316230	5423.98	1739.43	5696.07	17.7807	30.4607
7	251190	5603.65	1512.27	5804.13	15.1027	32.1027
8	199530	5862.14	1366.98	6019.41	13.1261	33.8247
9	158490	6073.94	1216.23	6194.51	11.323	35.4768
10	125890	6240.26	1069.06	6331.17	9.72138	37.2338
11	100000	6377.21	931.824	6444.93	8.31311	38.9708
12	79433	6487.42	807.796	6537.52	7.09778	40.9329
13	63096	6570.01	696.355	6606.82	6.05019	42.4849
14	50119	6637.47	597.937	6664.35	5.1476	44.3069
15	39811	6697.28	512.519	6716.87	4.37611	45.859
16	31623	6741.34	439.182	6755.63	3.72741	47.716
17	25119	6774.16	382.078	6784.92	3.22819	49.323
18	19953	6804.17	333.224	6812.32	2.80373	51.1701
19	15849	6834.92	292.632	6841.19	2.45158	52.8671
20	12589	6855.08	259.725	6860	2.16978	55.2141
21	10000	6877.19	233.107	6881.14	1.94134	57.4912
22	7943.3	6897.85	212.371	6901.12	1.76346	59.3382
23	6309.6	6919.56	196.117	6922.34	1.62347	61.0152
24	5011.9	6937.5	182.856	6939.91	1.50983	62.9123
25	3981.1	6954.5	173.584	6956.66	1.42981	64.6343
26	3162.3	6971.45	166.94	6973.45	1.37176	66.5264
27	2511.9	6990.57	163.132	6992.47	1.33682	68.2384
28	1995.3	7009.2	161.317	7011.06	1.31843	70.1204
29	1584.9	7026.78	161.848	7028.65	1.31946	71.6724
30	1258.9	7048.58	162.834	7050.47	1.32339	73.3345
31	1000	7063.77	167.749	7065.76	1.36039	75.0415
32	794.33	7083.42	174.55	7085.57	1.4116	77.0035
33	630.96	7105.68	182.556	7108.03	1.4717	78.6906
34	501.19	7130.37	192.541	7132.97	1.54678	80.6576
35	398.11	7152.91	205.161	7155.85	1.64292	82.2096
36	316.23	7172.78	220.597	7176.17	1.76156	83.9367
37	251.19	7196.88	239.282	7200.86	1.90427	85.7237
38	199.53	7225.08	262.356	7229.84	2.0796	87.4857
39	158.49	7251.84	288.896	7257.59	2.28132	89.2128
40	125.89	7288.97	320.619	7296.02	2.51864	91.2248
41	100	7322.36	357.043	7331.06	2.79157	92.8968
42	79.433	7365.21	399.361	7376.03	3.10368	94.7389
43	63.096	7410.63	442.964	7423.85	3.42074	96.4809
44	50.119	7472.73	493.239	7488.99	3.77634	98.6679
45	39.811	7542.5	556.916	7563.03	4.22289	100.315
46	31.623	7615.25	619.653	7640.42	4.65191	102.382
47	25.119	7701.09	683.496	7731.36	5.07189	104.229
48	19.953	7790.18	755.239	7826.7	5.53738	106.436
49	15.849	7900.94	827.164	7944.12	5.97663	108.958
50	12.589	8007.24	910.096	8058.79	6.48436	111.335
51	10	8122.58	988.653	8182.53	6.93971	114.222
52	7.9433	8246.11	1082.63	8316.88	7.47957	116.999
53	6.3096	8379.75	1192.82	8464.22	8.10136	119.646
54	5.0119	8514.49	1307.81	8614.34	8.73231	122.438
55	3.9811	8659.67	1447.29	8779.78	9.48817	125.39
56	3.1623	8809.11	1609.32	8954.91	10.3531	128.207
57	2.5119	8975.71	1800.97	9154.61	11.3457	131.415
58	1.9953	9138.39	2026.66	9360.43	12.5044	134.387
59	1.5849	9321.57	2309.01	9603.29	13.9125	137.579
60	1.2589	9510.22	2626.19	9866.16	15.4372	140.816
61	1	9719.45	3046.64	10185.8	17.404	146.115
62	0.79433	9946.19	3547.04	10559.7	19.6274	149.552
63	0.63096	10203.4	4122.16	11004.6	21.9987	153.694
64	0.50119	10459.2	4854.78	11531	24.899	157.806
65	0.39811	10729.2	5796.05	12194.7	28.3785	162.413
66	0.31623	11051	6916.43	13036.9	32.041	167.65
67	0.25119	11504.3	8284.97	14177.1	35.76	173.532
68	0.19953	11886.9	9956.93	15506.1	39.9508	180.094
69	0.15849	12381.8	11943.1	17203.1	43.967	188.012
70	0.12589	13050	14515.8	19519.5	48.0438	196.784
71	0.1	13814.4	17445	22252.3	51.625	207.611