File: data/Z_s11_1.txt
Index	Frequency (Hz)	Z' (Ω)	-Z'' (Ω)	Z (Ω)	-Phase (°)	Time (s)
1	1000000	2158.97	1599.89	2687.15	36.5399	23.2025
2	794330	2411.98	1495.18	2837.82	31.7948	26.3496
3	630960	2750.69	1395.05	3084.23	26.8925	28.4566
4	501190	3018.01	1268.9	3273.91	22.804	31.0137
5	398110	3263.71	1100.69	3444.32	18.6368	33.9607
6	316230	3436.16	972.344	3571.09	15.8001	36.0078
7	251190	3507.66	817.246	3601.61	13.1153	38.0648
8	199530	3638.08	723.141	3709.25	11.2422	40.1719
9	158490	3736.76	633.072	3790.01	9.61559	42.1989
10	125890	3815.92	550.503	3855.43	8.20912	44.2259
11	100000	3882.76	476.876	3911.94	7.00193	46.008
12	79433	3934.13	411.409	3955.58	5.96997	48.175
13	63096	3975.68	354.557	3991.45	5.09625	50.297
14	50119	4010.69	305.396	4022.3	4.35441	52.1791
15	39811	4041.53	263.259	4050.09	3.7269	54.5761
16	31623	4065.03	227.511	4071.39	3.20338	56.8432
17	25119	4082.95	199.971	4087.84	2.80394	58.7802
18	19953	4100.8	177.056	4104.62	2.47227	60.3222
19	15849	4117.77	158.432	4120.82	2.20338	63.3293
20	12589	4134.83	144.158	4137.34	1.99677	65.2213
21	10000	4149.85	132.662	4151.97	1.831	67.1984
22	7943.3	4166.04	124.362	4167.9	1.70985	69.3104
23	6309.6	4178.75	118.323	4180.43	1.62192	71.0474
24	5011.9	4192.68	114.766	4194.25	1.56796	72.7395
25	3981.1	4207.4	112.592	4208.91	1.53289	74.4215
26	3162.3	4220.03	112.305	4221.52	1.52441	76.0735
27	2511.9	4234.26	113.199	4235.77	1.53138	77.7255
28	1995.3	4248.79	115.941	4250.37	1.56311	79.4226
29	1584.9	4263.72	119.762	4265.4	1.60894	81.0846
30	1258.9	4282.61	125.913	4284.46	1.68407	82.6116
31	1000	4296.71	132.249	4298.75	1.76296	84.1837
32	794.33	4316.5	140.971	4318.8	1.87053	85.9057
33	630.96	4334.02	151.16	4336.65	1.99753	87.3827
34	501.19	4354.57	162.889	4357.61	2.14224	89.1298
35	398.11	4377.16	176.518	4380.72	2.30931	90.6668
36	316.23	4399	192.651	4403.22	2.50763	92.2688
37	251.19	4423.93	211.168	4428.97	2.73283	93.9108
38	199.53	4453.08	232.364	4459.14	2.98702	95.6779
39	158.49	4480.66	256.744	4488	3.2795	97.2949
40	125.89	4512.51	285.506	4521.53	3.62028	99.0669
41	100	4548.81	316.968	4559.84	3.98601	100.864
42	79.433	4591.92	354.086	4605.56	4.40938	102.856
43	63.096	4638.59	393.498	4655.25	4.84887	104.658
44	50.119	4693.08	438.56	4713.52	5.33869	106.61
45	39.811	4752.16	490.4	4777.4	5.89179	108.382
46	31.623	4820.97	544.159	4851.58	6.43992	110.229
47	25.119	4896.1	599.861	4932.71	6.98496	112.301
48	19.953	4976.59	661.942	5020.42	7.57651	114.428
49	15.849	5070.53	727.757	5122.49	8.1677	117.06
50	12.589	5161.67	798.413	5223.05	8.79289	120.112
51	10	5266.98	879.138	5339.84	9.47617	123.824
52	7.9433	5373.18	968.222	5459.72	10.2148	126.861
53	6.3096	5489.38	1070.33	5592.76	11.0332	130.859
54	5.0119	5613.88	1190.76	5738.78	11.9755	135.076
55	3.9811	5738.43	1330.12	5890.56	13.0503	138.778
56	3.1623	5878.18	1497.2	6065.85	14.2897	142.775
57	2.5119	6024.12	1695.64	6258.21	15.7206	146.782
58	1.9953	6179.33	1936.06	6475.53	17.3964	150.254
59	1.5849	6349.46	2222.41	6727.17	19.2909	153.951
60	1.2589	6533.49	2568.65	7020.29	21.4624	157.633
61	1	6741.09	2983.37	7371.75	23.8725	161.645
62	0.79433	6972.31	3489.24	7796.66	26.5853	165.497
63	0.63096	7223.19	4102.26	8306.81	29.5935	170.084
64	0.50119	7497.79	4841.52	8925.09	32.8514	174.856
65	0.39811	7805.03	5738.13	9687.35	36.3227	180.013
66	0.31623	8178.77	6841.19	10662.7	39.911	186.451
67	0.25119	8598.8	8208.81	11888	43.6708	194.198
68	0.19953	9077.33	9857.69	13400.4	47.36	202.295
69	0.15849	9678.56	11890.1	15331.3	50.8544	211.852
70	0.12589	10305.8	14362.5	17677.4	54.3386	222.134
71	0.1	11162	17417.6	20687.3	57.3464	233.496