File: data/Z_s15_1.3.txt
Index	Frequency (Hz)	Z' (Ω)	-Z'' (Ω)	Z (Ω)	-Phase (°)	Time (s)
1	1000000	3021.28	2380.95	3846.69	38.2403	21.2555
2	794330	3405.99	2221.01	4066.16	33.108	23.0425
3	630960	3832.98	2111.16	4375.93	28.8454	25.0796
4	501190	4235.37	2012.49	4689.19	25.4153	26.8666
5	398110	4699.4	1884.48	5063.17	21.851	28.7236
6	316230	5032.05	1764.7	5332.52	19.3254	30.3657
7	251190	5230.78	1566.04	5460.18	16.6671	33.2847
8	199530	5507.92	1443.49	5693.93	14.6855	34.9118
9	158490	5739.63	1310.87	5887.42	12.8651	36.5838
10	125890	5932.83	1175.79	6048.22	11.2098	38.1458
11	100000	6093.46	1045.35	6182.48	9.73449	39.8929
12	79433	6228.76	923.059	6296.78	8.42949	41.5049
13	63096	6337.57	809.614	6389.07	7.28001	43.3869
14	50119	6431.5	706.583	6470.19	6.26954	44.9689
15	39811	6505.27	611.909	6533.98	5.37364	46.776
16	31623	6564.66	528.814	6585.93	4.6055	48.358
17	25119	6614	460.508	6630.01	3.98286	50.11
18	19953	6652.69	401.059	6664.76	3.44992	51.9371
19	15849	6690.99	350.606	6700.17	2.99953	53.6441
20	12589	6720.66	308.291	6727.73	2.62644	55.2261
21	10000	6748.22	274.007	6753.78	2.32518	56.9282
22	7943.3	6771.49	245.021	6775.93	2.0723	58.5402
23	6309.6	6794.71	221.948	6798.33	1.87089	60.2872
24	5011.9	6814.49	203.259	6817.52	1.70848	62.0493
25	3981.1	6837.9	188.455	6840.5	1.57869	64.2663
26	3162.3	6850.15	176.679	6852.43	1.47745	65.9733
27	2511.9	6873.41	168.466	6875.47	1.40403	67.9654
28	1995.3	6889.75	162.281	6891.66	1.34929	69.6874
29	1584.9	6907.53	158.492	6909.35	1.31441	71.4544
30	1258.9	6923.35	157.269	6925.14	1.30129	73.1665
31	1000	6945.87	156.694	6947.63	1.29234	74.8485
32	794.33	6963.68	159.518	6965.51	1.31225	76.6755
33	630.96	6980.06	161.681	6981.94	1.32692	78.4226
34	501.19	6996.98	166.586	6998.97	1.36385	80.2846
35	398.11	7019.93	175.907	7022.13	1.43543	82.1966
36	316.23	7040.85	185.471	7043.29	1.50895	83.9687
37	251.19	7060.43	196.177	7063.16	1.59158	86.0307
38	199.53	7082.49	211.307	7085.64	1.70892	87.6227
39	158.49	7106.16	231.866	7109.94	1.86884	89.5598
40	125.89	7130.19	250.967	7134.61	2.01585	91.3268
41	100	7165.55	278.148	7170.95	2.22296	93.3088
42	79.433	7198.06	308.83	7204.68	2.45675	94.7659
43	63.096	7208.97	359.683	7217.93	2.85634	96.6129
44	50.119	7284.79	358.739	7293.61	2.81925	98.4949
45	39.811	7321.53	425.425	7333.88	3.32549	101.557
46	31.623	7376.76	482.559	7392.53	3.74273	103.619
47	25.119	7448.17	519.811	7466.28	3.99223	105.456
48	19.953	7507.41	579.919	7529.77	4.41711	108.183
49	15.849	7575.95	634.746	7602.49	4.7893	110.23
50	12.589	7669.06	710.226	7701.88	5.29103	112.242
51	10	7760.6	775.651	7799.27	5.7076	114.759
52	7.9433	7848.46	856.615	7895.07	6.22885	117.206
53	6.3096	7950.3	935.049	8005.1	6.70785	119.953
54	5.0119	8064.52	1034.94	8130.66	7.31294	122.46
55	3.9811	8179.93	1148.28	8260.13	7.99081	125.192
56	3.1623	8298.77	1276.08	8396.31	8.74176	127.834
57	2.5119	8430.99	1434.49	8552.15	9.65611	130.627
58	1.9953	8563.48	1618.25	8715.04	10.7011	133.544
59	1.5849	8708.27	1844.81	8901.54	11.961	136.446
60	1.2589	8855.84	2102.73	9102.05	13.357	139.353
61	1	9037.53	2439.07	9360.88	15.1033	144.932
62	0.79433	9227.29	2824.67	9649.96	17.0204	148.564
63	0.63096	9432.43	3309.07	9996.04	19.3318	152.641
64	0.50119	9642.74	3901.15	10402	22.0267	156.853
65	0.39811	9881.41	4581.43	10891.8	24.8744	161.59
66	0.31623	10176.4	5459.33	11548.3	28.2123	166.762
67	0.25119	10466.5	6550.73	12347.4	32.0416	172.714
68	0.19953	10931.2	7827.53	13444.8	35.6054	179.381
69	0.15849	11418.1	9440.29	14815.2	39.5834	187.279
70	0.12589	11902.2	11271.9	16392.6	43.4422	196.091
71	0.1	12396.5	13726.4	18495.6	47.9144	206.703