File: data/Z_s10_1.4.txt
Index	Frequency (Hz)	Z' (Ω)	-Z'' (Ω)	Z (Ω)	-Phase (°)	Time (s)
1	1000000	3947.73	3700.73	5411.1	43.1504	19.6875
2	794330	4667.7	3315.31	5725.27	35.3849	22.0246
3	630960	5342.26	3216.24	6235.7	31.0495	23.8166
4	501190	5999.38	3060.75	6735.04	27.0296	25.7086
5	398110	6813.44	2869.17	7392.9	22.8362	27.3357
6	316230	7318.05	2655.65	7785.01	19.9453	29.1177
7	251190	7631.22	2337.78	7981.27	17.0321	30.9797
8	199530	8031.4	2127.83	8308.49	14.8389	32.5818
9	158490	8362.33	1905.82	8576.75	12.8387	34.0188
10	125890	8634.59	1686.54	8797.76	11.0521	35.5758
11	100000	8848.25	1478.38	8970.91	9.48546	37.1029
12	79433	9029.23	1287.86	9120.61	8.11745	38.7899
13	63096	9170.11	1116.61	9237.84	6.94249	40.3519
14	50119	9288.68	963.499	9338.51	5.92202	42.1539
15	39811	9387.99	827.945	9424.42	5.03999	43.761
16	31623	9450.65	709.97	9477.28	4.29622	45.403
17	25119	9514.17	620.585	9534.39	3.73197	47.145
18	19953	9563.93	543.237	9579.35	3.25094	49.0721
19	15849	9610.71	477.184	9622.54	2.84248	51.0391
20	12589	9647.24	423.914	9656.55	2.51605	53.3311
21	10000	9688.9	380.326	9696.36	2.24792	55.0482
22	7943.3	9721.13	344.499	9727.23	2.02961	59.4723
23	6309.6	9749.66	315.791	9754.77	1.85516	61.6993
24	5011.9	9780.3	294.232	9784.72	1.72317	64.7614
25	3981.1	9809.24	276.631	9813.14	1.61538	67.0234
26	3162.3	9838.81	263.079	9842.32	1.53166	69.0354
27	2511.9	9863.83	252.857	9867.07	1.46844	71.3225
28	1995.3	9892.64	247.814	9895.74	1.43498	72.9395
29	1584.9	9921.34	244.603	9924.36	1.41229	74.8065
30	1258.9	9946.51	244.844	9949.52	1.41011	76.7186
31	1000	9979.28	246.462	9982.32	1.41477	79.3856
32	794.33	10013.9	251.264	10017.1	1.43733	81.7827
33	630.96	10041.4	258.417	10044.7	1.47419	83.7947
34	501.19	10068.4	270.968	10072	1.54161	86.5718
35	398.11	10105.3	285.02	10109.3	1.61561	89.9838
36	316.23	10133.4	303.682	10138	1.71655	93.0209
37	251.19	10171.6	323.968	10176.8	1.82426	95.3329
38	199.53	10207.4	349.388	10213.4	1.96041	97.545
39	158.49	10247.9	381.325	10255	2.131	99.792
40	125.89	10292.8	419.218	10301.4	2.33232	102.274
41	100	10346.2	460.561	10356.5	2.54883	104.721
42	79.433	10393.7	508.553	10406.2	2.80118	107.098
43	63.096	10468.8	561.253	10483.9	3.06879	109.27
44	50.119	10539.1	616.476	10557.2	3.34764	112.057
45	39.811	10607.7	688.024	10630	3.71105	114.924
46	31.623	10696.3	759.021	10723.2	4.05895	118.166
47	25.119	10806.1	843.132	10839	4.46137	120.803
48	19.953	10915.9	939.22	10956.2	4.91771	123.905
49	15.849	11026.1	1038.97	11075	5.38296	127.098
50	12.589	11169.7	1137.3	11227.5	5.81379	130.425
51	10	11310.3	1253.59	11379.5	6.32462	133.777
52	7.9433	11463.2	1381.36	11546.1	6.87125	137.699
53	6.3096	11628	1525.41	11727.6	7.47363	141.241
54	5.0119	11796.7	1692.84	11917.6	8.16622	144.698
55	3.9811	11981.9	1881.83	12128.8	8.92573	148.51
56	3.1623	12189.7	2111.01	12371.2	9.825	152.262
57	2.5119	12402.1	2376.88	12627.8	10.8492	155.989
58	1.9953	12623.5	2678.37	12904.6	11.979	159.941
59	1.5849	12883.7	3063.23	13242.9	13.3743	163.393
60	1.2589	13142.5	3493.96	13599	14.8878	167.235
61	1	13445.6	4037.43	14038.7	16.7139	173.574
62	0.79433	13771.3	4674.26	14543	18.7482	177.431
63	0.63096	14115.1	5413.94	15117.7	20.9847	181.524
64	0.50119	14517.5	6389.26	15861.3	23.7547	186.376
65	0.39811	14957.7	7514.77	16739.3	26.6751	191.868
66	0.31623	15438.2	8967.52	17853.7	30.1508	197.22
67	0.25119	16035.8	10588.5	19216.3	33.437	203.042
68	0.19953	16602.4	12661.1	20879.3	37.3293	210.494
69	0.15849	17401.4	14913.4	22917.6	40.5973	218.811
70	0.12589	18387.7	18003.7	25734	44.3954	228.663
71	0.1	19219.3	21521.2	28853.8	48.2339	251.518