File: data/Z_s17_1.3.txt
Index	Frequency (Hz)	Z' (Ω)	-Z'' (Ω)	Z (Ω)	-Phase (°)	Time (s)
1	1000000	2574.56	1916.58	3209.62	36.6651	20.5665
2	794330	2869.84	1782.63	3378.43	31.8468	22.2385
3	630960	3206.95	1710.28	3634.49	28.0712	23.9756
4	501190	3526.81	1625.68	3883.46	24.7472	25.7876
5	398110	3886.36	1491.22	4162.63	20.9921	27.7496
6	316230	4147.57	1386.49	4373.18	18.4843	29.3617
7	251190	4295.7	1224.71	4466.87	15.9129	31.1887
8	199530	4506.96	1121.21	4644.33	13.9701	33.0657
9	158490	4686.11	1011.7	4794.07	12.1828	34.7428
10	125890	4830.72	901.301	4914.08	10.5686	36.3848
11	100000	4953.76	796.898	5017.44	9.13873	38.1518
12	79433	5052.99	699.343	5101.16	7.87977	39.7938
13	63096	5134.31	610.933	5170.53	6.78573	41.5359
14	50119	5198.39	530.722	5225.41	5.82933	43.1779
15	39811	5256.58	459.906	5276.66	5.00016	44.9949
16	31623	5294.97	397.862	5309.89	4.29711	46.637
17	25119	5334.02	348.19	5345.37	3.73481	48.354
18	19953	5364.29	304.816	5372.94	3.25223	49.931
19	15849	5395.02	268.973	5401.73	2.85416	51.6331
20	12589	5417.18	238.979	5422.45	2.52597	53.2851
21	10000	5436.86	215.178	5441.11	2.26645	55.2171
22	7943.3	5455.45	194.868	5458.93	2.04573	56.8442
23	6309.6	5475.38	179.565	5478.33	1.87834	58.5962
24	5011.9	5492.82	167.581	5495.38	1.7475	60.2332
25	3981.1	5510.37	158.318	5512.64	1.6457	62.0203
26	3162.3	5524.31	151.575	5526.39	1.57168	63.5873
27	2511.9	5543.78	147.214	5545.74	1.52112	65.4043
28	1995.3	5558.87	144.424	5560.75	1.48825	67.0864
29	1584.9	5575.24	143.912	5577.1	1.47863	68.7634
30	1258.9	5592.68	145.56	5594.58	1.49089	70.3054
31	1000	5609.8	147.416	5611.73	1.50529	71.8974
32	794.33	5628.99	151.961	5631.04	1.54639	73.6045
33	630.96	5647.31	157.804	5649.51	1.60061	75.0115
34	501.19	5667.39	165.555	5669.81	1.67324	76.6785
35	398.11	5687.26	175.029	5689.95	1.76276	78.1456
36	316.23	5707.46	187.263	5710.53	1.87921	79.9326
37	251.19	5728.03	200.964	5731.56	2.00936	81.7046
38	199.53	5752.18	218.481	5756.33	2.17518	83.4067
39	158.49	5775.13	239.173	5780.08	2.37151	85.0537
40	125.89	5798.8	263.79	5804.8	2.60461	86.8457
41	100	5829.89	292.719	5837.24	2.87441	88.4727
42	79.433	5864.52	327.019	5873.63	3.19163	90.1648
43	63.096	5903.83	365.608	5915.14	3.54365	92.0518
44	50.119	5943.67	412.134	5957.94	3.96653	94.1489
45	39.811	5996.81	461.132	6014.51	4.39718	95.8909
46	31.623	6054.26	518.669	6076.44	4.89658	97.9179
47	25.119	6120.01	576.958	6147.15	5.38559	99.755
48	19.953	6196.09	646.4	6229.72	5.95577	102.237
49	15.849	6274	719.633	6315.14	6.54327	104.304
50	12.589	6363.46	799.5	6413.48	7.16108	106.646
51	10	6454.12	888.724	6515.02	7.84025	109.378
52	7.9433	6556.31	991.263	6630.82	8.59757	111.93
53	6.3096	6660.95	1110.54	6752.89	9.46548	114.702
54	5.0119	6777	1245.9	6890.58	10.4171	117.539
55	3.9811	6900.16	1410.32	7042.82	11.5515	120.361
56	3.1623	7033.08	1604.43	7213.77	12.8507	123.258
57	2.5119	7178.03	1834.63	7408.78	14.3373	126.125
58	1.9953	7334.12	2106.5	7630.64	16.0251	129.057
59	1.5849	7518.82	2438.2	7904.26	17.9668	132.115
60	1.2589	7708.72	2831.93	8212.44	20.1717	135.397
61	1	7929.6	3305.19	8590.86	22.6272	139.234
62	0.79433	8192.38	3885.97	9067.3	25.3769	142.771
63	0.63096	8461.28	4565.38	9614.36	28.3496	146.673
64	0.50119	8766.89	5390.98	10291.8	31.5884	150.665
65	0.39811	9115.13	6388.96	11131.2	35.0273	155.737
66	0.31623	9461.93	7637.23	12159.6	38.9089	161.319
67	0.25119	9963.2	9125.35	13510.6	42.4868	167.216
68	0.19953	10397.1	10947.5	15097.9	46.4769	174.033
69	0.15849	10975.3	13160.9	17136.7	50.174	181.645
70	0.12589	11678.4	15919.9	19744.1	53.7371	190.553
71	0.1	12572.9	19181.1	22934.5	56.7557	201.29