File: data/Z_s18_1.txt
Index	Frequency (Hz)	Z' (Ω)	-Z'' (Ω)	Z (Ω)	-Phase (°)	Time (s)
1	1000000	2284.57	2089.2	3095.81	42.4424	72.5755
2	794330	2669.4	2083.08	3385.98	37.9668	74.0825
3	630960	3131.35	1955.96	3692.04	31.9904	75.6945
4	501190	3551.04	1831.34	3995.46	27.281	77.5216
5	398110	3933.49	1659.62	4269.27	22.8759	79.1286
6	316230	4213.93	1500.76	4473.2	19.603	80.7256
7	251190	4363.23	1291	4550.21	16.4825	83.7427
8	199530	4568.07	1160.49	4713.17	14.2542	85.3397
9	158490	4736.41	1033.23	4847.8	12.3061	86.8617
10	125890	4874.57	912.809	4959.3	10.6063	88.3788
11	100000	4986.2	801.012	5050.13	9.12636	89.8958
12	79433	5079.43	700.196	5127.47	7.84871	91.7128
13	63096	5157.74	609.684	5193.65	6.7415	93.1498
14	50119	5221.84	529.045	5248.57	5.78512	95.3419
15	39811	5273.47	457.054	5293.24	4.95348	97.4789
16	31623	5314.3	395.116	5328.96	4.2521	99.496
17	25119	5350.48	345.372	5361.62	3.6933	101.223
18	19953	5379.96	302.814	5388.47	3.22152	102.695
19	15849	5407.16	267.016	5413.75	2.82708	105.787
20	12589	5429.57	237.971	5434.78	2.50959	108.049
21	10000	5448.85	214.397	5453.06	2.25327	109.911
22	7943.3	5468.72	195.947	5472.22	2.05207	112.843
23	6309.6	5486.63	181.929	5489.64	1.89916	115.305
24	5011.9	5505.25	171.001	5507.9	1.77912	118.667
25	3981.1	5523.73	163.214	5526.14	1.69247	121.149
26	3162.3	5537.46	158.634	5539.73	1.64093	122.951
27	2511.9	5555.41	155.997	5557.6	1.60845	124.893
28	1995.3	5573.48	155.973	5575.66	1.603	127.21
29	1584.9	5592.33	157.766	5594.56	1.61595	129.063
30	1258.9	5609.31	162.11	5611.66	1.6554	130.86
31	1000	5627.1	167.812	5629.6	1.70818	132.632
32	794.33	5650.21	176.078	5652.95	1.78494	134.174
33	630.96	5671.26	185.667	5674.3	1.8751	135.791
34	501.19	5694.62	198.175	5698.06	1.99311	137.448
35	398.11	5718.22	213.081	5722.19	2.13405	139.01
36	316.23	5742.02	229.838	5746.62	2.29218	140.967
37	251.19	5769.9	251.173	5775.37	2.4926	143.064
38	199.53	5799.19	275.517	5805.73	2.72005	144.811
39	158.49	5830.66	302.995	5838.52	2.97475	146.448
40	125.89	5867.28	334.731	5876.82	3.26521	148.2
41	100	5900.73	373.452	5912.54	3.62136	150.462
42	79.433	5949.57	416.786	5964.15	4.0072	151.874
43	63.096	5998.31	468.827	6016.6	4.46914	153.836
44	50.119	6059.49	521.712	6081.91	4.92093	156.313
45	39.811	6120.73	583.874	6148.52	5.44912	158.535
46	31.623	6192.21	652.035	6226.44	6.01105	161.132
47	25.119	6277.17	728.611	6319.31	6.62088	163.329
48	19.953	6364.43	817.293	6416.69	7.31763	166.216
49	15.849	6465.92	908.376	6529.42	7.99695	169.213
50	12.589	6573.22	1015.14	6651.15	8.77919	173.265
51	10	6695.51	1135.58	6791.12	9.62593	176.702
52	7.9433	6826.99	1271.56	6944.39	10.5507	180.054
53	6.3096	6966.35	1424	7110.4	11.5527	183.037
54	5.0119	7119.55	1603.12	7297.81	12.6897	186.479
55	3.9811	7290.63	1808.71	7511.64	13.9331	190.131
56	3.1623	7475.74	2049.71	7751.64	15.3326	193.853
57	2.5119	7677.27	2331.4	8023.46	16.8922	197.05
58	1.9953	7902.76	2663.93	8339.68	18.6284	200.367
59	1.5849	8146.12	3058.71	8701.44	20.5802	203.859
60	1.2589	8421.71	3524.27	9129.38	22.708	207.401
61	1	8719.25	4074.79	9624.41	25.0482	211.488
62	0.79433	9066.11	4747.5	10233.9	27.639	215.525
63	0.63096	9436.36	5543.45	10944.2	30.4324	219.567
64	0.50119	9840.72	6486.5	11786.2	33.3908	223.994
65	0.39811	10304.4	7652.61	12835.2	36.5996	228.981
66	0.31623	10822.5	9033.29	14097.1	39.8508	234.343
67	0.25119	11415.8	10747.2	15678.8	43.272	240.576
68	0.19953	12208.2	12785.2	17677.7	46.3224	247.548
69	0.15849	13015.6	15319.2	20101.9	49.6479	255.365
70	0.12589	14009.7	18296.8	23044.4	52.559	264.847
71	0.1	15082.4	21854.3	26553.5	55.3892	276.094