File: data/Z_s15_1.4.txt
Index	Frequency (Hz)	Z' (Ω)	-Z'' (Ω)	Z (Ω)	-Phase (°)	Time (s)
1	1000000	2954.91	2379.48	3793.87	38.8432	21.9415
2	794330	3148.93	2217.4	3851.31	35.1522	23.9486
3	630960	3778.09	2125	4334.7	29.3557	25.9156
4	501190	4180.19	2029.48	4646.8	25.8966	27.7926
5	398110	4648.83	1896	5020.6	22.1878	29.8447
6	316230	4987.57	1772.55	5293.19	19.5649	31.7167
7	251190	5185.13	1567.78	5416.96	16.8233	33.6687
8	199530	5459.82	1440.27	5646.6	14.7776	35.5458
9	158490	5692.94	1303.13	5840.18	12.893	37.5578
10	125890	5882.03	1164.04	5996.1	11.1941	39.3949
11	100000	6035.41	1029.51	6122.59	9.68022	41.3119
12	79433	6166.81	905.453	6232.93	8.35288	43.2939
13	63096	6274.06	791.032	6323.73	7.18593	45.276
14	50119	6361.16	687.19	6398.17	6.16569	47.248
15	39811	6433.16	593.896	6460.51	5.27448	49.1
16	31623	6487.89	511.631	6508.03	4.50898	50.9671
17	25119	6532.64	445.324	6547.8	3.89976	52.7391
18	19953	6574.98	388.478	6586.45	3.38135	54.6461
19	15849	6607.41	339.366	6616.12	2.94021	56.3582
20	12589	6634.89	298.446	6641.6	2.5755	58.1402
21	10000	6658.94	265.149	6664.22	2.28022	59.7522
22	7943.3	6683.39	237.125	6687.59	2.03199	61.6593
23	6309.6	6703.62	215.108	6707.08	1.83789	63.6313
24	5011.9	6727.77	197.493	6730.67	1.68143	65.7933
25	3981.1	6744.96	183.536	6747.46	1.55868	67.6454
26	3162.3	6761.66	172.46	6763.86	1.46104	69.6674
27	2511.9	6780.38	164.703	6782.38	1.39151	71.6245
28	1995.3	6799.73	158.179	6801.57	1.3326	73.6965
29	1584.9	6814.68	154.59	6816.43	1.29952	75.4435
30	1258.9	6833.61	152.996	6835.33	1.28257	77.3856
31	1000	6845.79	153.117	6847.5	1.2813	79.0826
32	794.33	6868.55	155.186	6870.3	1.2943	81.0146
33	630.96	6888.49	159.146	6890.33	1.32348	82.6617
34	501.19	6903.67	164.22	6905.62	1.36266	84.9637
35	398.11	6925.15	171.931	6927.29	1.42219	86.7957
36	316.23	6944.68	182.374	6947.07	1.5043	88.6328
37	251.19	6966.73	194.275	6969.44	1.59735	90.6998
38	199.53	6987.96	210.17	6991.12	1.72271	92.5468
39	158.49	7010.56	228.023	7014.27	1.86292	94.5689
40	125.89	7034.28	251.01	7038.75	2.04366	96.4959
41	100	7057.84	275.135	7063.2	2.23242	98.698
42	79.433	7094.04	305.575	7100.61	2.46649	100.45
43	63.096	7127.02	341.942	7135.21	2.74685	102.507
44	50.119	7170.94	382.591	7181.14	3.054	104.549
45	39.811	7221.18	421.569	7233.47	3.34111	107.206
46	31.623	7279.16	469.916	7294.31	3.69368	109.763
47	25.119	7341.43	520.123	7359.83	4.05251	111.875
48	19.953	7404.72	575.548	7427.05	4.44451	114.417
49	15.849	7488.27	631.775	7514.87	4.82255	117.169
50	12.589	7569.62	700.555	7601.97	5.28757	119.616
51	10	7656.45	766.597	7694.73	5.71764	122.563
52	7.9433	7752.58	843.484	7798.33	6.20938	125.83
53	6.3096	7852.89	928.231	7907.56	6.74122	128.848
54	5.0119	7963.56	1021.66	8028.83	7.31066	131.905
55	3.9811	8073.37	1135.54	8152.84	8.00625	134.977
56	3.1623	8194.82	1263.34	8291.62	8.76393	137.949
57	2.5119	8318.86	1416.84	8438.66	9.66569	141.031
58	1.9953	8449.66	1597.09	8599.27	10.7034	144.168
59	1.5849	8596.66	1819.62	8787.13	11.9512	147.47
60	1.2589	8750.61	2073.53	8992.93	13.3308	151.107
61	1	8912.69	2400.56	9230.32	15.0744	155.464
62	0.79433	9100.84	2787.6	9518.2	17.0299	159.081
63	0.63096	9291.3	3254.92	9844.93	19.3063	162.978
64	0.50119	9497.47	3810.66	10233.4	21.8621	167.175
65	0.39811	9732.45	4520.75	10731.2	24.915	172.267
66	0.31623	10014.2	5412.57	11383.3	28.3907	178.464
67	0.25119	10338.7	6509.26	12217.2	32.1945	184.657
68	0.19953	10718	7712.52	13204.5	35.7383	191.369
69	0.15849	11150.5	9252.23	14489.2	39.6846	199.421
70	0.12589	11681.6	11135.6	16138.8	43.6291	208.793
71	0.1	12202.2	13473.5	18177.7	47.8347	220.045