File: data/Z_s18_1.2.txt
Index	Frequency (Hz)	Z' (Ω)	-Z'' (Ω)	Z (Ω)	-Phase (°)	Time (s)
1	1000000	2643.72	1910.83	3261.99	35.8587	142.163
2	794330	2966.55	1769.07	3453.99	30.8094	146.71
3	630960	3288.68	1659.31	3683.58	26.7734	149.292
4	501190	3609.2	1559.28	3931.63	23.3658	151.409
5	398110	3951.87	1418.07	4198.59	19.7398	153.511
6	316230	4199	1311.06	4398.92	17.34	155.853
7	251190	4328.87	1153.09	4479.81	14.9156	158.175
8	199530	4531.67	1051.34	4652.03	13.0614	160.512
9	158490	4696.1	943.579	4789.95	11.3611	162.309
10	125890	4830.01	838.097	4902.18	9.84388	163.926
11	100000	4938.95	738.084	4993.79	8.49947	165.928
12	79433	5029.68	646.68	5071.08	7.32649	167.85
13	63096	5107.45	564.434	5138.54	6.30627	169.542
14	50119	5166.66	490.009	5189.85	5.41776	171.069
15	39811	5217.48	424.563	5234.72	4.65209	172.751
16	31623	5255.31	367.799	5268.17	4.00338	174.578
17	25119	5288.04	322.355	5297.85	3.48839	176.25
18	19953	5320.68	283.557	5328.23	3.0506	178.067
19	15849	5346.22	250.733	5352.1	2.68515	180.014
20	12589	5370.79	224.33	5375.47	2.39177	182.971
21	10000	5389.61	202.531	5393.41	2.15206	184.709
22	7943.3	5409.7	184.938	5412.86	1.95798	186.776
23	6309.6	5427.9	171.818	5430.62	1.81307	189.573
24	5011.9	5444.12	161.105	5446.5	1.69503	191.8
25	3981.1	5461.72	153.74	5463.88	1.61237	193.842
26	3162.3	5481.57	148.763	5483.58	1.55456	195.944
27	2511.9	5496.9	145.558	5498.83	1.51684	198.231
28	1995.3	5513.78	144.551	5515.67	1.50174	200.428
29	1584.9	5533.12	145.721	5535.04	1.5086	202.905
30	1258.9	5550.72	148.966	5552.72	1.53729	205.107
31	1000	5567.58	152.996	5569.69	1.57408	207.109
32	794.33	5589.16	159.315	5591.43	1.63274	209.131
33	630.96	5607.91	167.868	5610.42	1.71458	211.118
34	501.19	5629.41	178.036	5632.23	1.81144	213.8
35	398.11	5649.95	190.651	5653.16	1.93265	216.207
36	316.23	5673.24	206.165	5676.98	2.08121	218.409
37	251.19	5699.69	224.485	5704.11	2.25545	220.571
38	199.53	5724.82	246.198	5730.11	2.46251	222.838
39	158.49	5753.02	272.101	5759.45	2.7079	224.9
40	125.89	5786.42	302.034	5794.3	2.98796	227.552
41	100	5820.91	337.51	5830.69	3.31842	229.684
42	79.433	5859.3	377.432	5871.44	3.68566	232.146
43	63.096	5907.65	422.179	5922.72	4.08758	235.563
44	50.119	5960.51	475.401	5979.44	4.56017	238.416
45	39.811	6021.46	533.151	6045.01	5.05988	241.418
46	31.623	6089.76	596.439	6118.9	5.59378	243.645
47	25.119	6169.13	666.681	6205.05	6.16786	246.417
48	19.953	6244.7	745.618	6289.05	6.80889	248.829
49	15.849	6339.86	831.183	6394.11	7.46913	251.731
50	12.589	6442.69	927.556	6509.12	8.1926	255.078
51	10	6551.73	1036.97	6633.29	8.99381	258.415
52	7.9433	6673.85	1161.1	6774.1	9.8694	261.677
53	6.3096	6805.91	1302.68	6929.46	10.8356	264.954
54	5.0119	6945.7	1465.13	7098.55	11.9114	268.646
55	3.9811	7098.55	1656.2	7289.2	13.133	271.918
56	3.1623	7273.41	1879.3	7512.27	14.4872	276.685
57	2.5119	7460.82	2140.75	7761.88	16.0099	280.152
58	1.9953	7664.53	2448.5	8046.12	17.7166	283.689
59	1.5849	7892.61	2810.38	8378.04	19.5996	287.216
60	1.2589	8145.83	3243.66	8767.88	21.7124	290.888
61	1	8424.15	3757.64	9224.22	24.0395	295.026
62	0.79433	8743.13	4368.74	9773.85	26.5502	299.148
63	0.63096	9089.41	5098.59	10421.8	29.2897	303.22
64	0.50119	9462.76	5978.17	11193	32.283	307.272
65	0.39811	9857.3	7051.71	12119.9	35.5792	311.774
66	0.31623	10354.2	8315.36	13279.9	38.7675	317.366
67	0.25119	10866	9900.75	14700.1	42.3388	323.428
68	0.19953	11520.9	11851.1	16528.1	45.8095	330.985
69	0.15849	12206.6	14173.9	18705.7	49.2649	338.907
70	0.12589	13014.6	16978	21392.4	52.5277	348.895
71	0.1	14004.4	20482.7	24812.6	55.6388	360.187