File: data/Z_s16_1.2.txt
Index	Frequency (Hz)	Z' (Ω)	-Z'' (Ω)	Z (Ω)	-Phase (°)	Time (s)
1	1000000	4208.74	3776.23	5654.5	41.8996	21.5965
2	794330	4876.84	3347.16	5914.99	34.4632	23.3986
3	630960	5593.89	3117.13	6403.75	29.1282	25.2606
4	501190	6236.64	2903.25	6879.28	24.9627	27.2526
5	398110	7013.97	2695.83	7514.2	21.0243	29.2197
6	316230	7483	2467.42	7879.3	18.2493	31.0517
7	251190	7744.21	2139.68	8034.37	15.4451	32.8037
8	199530	8105.43	1928.01	8331.58	13.3801	34.8108
9	158490	8401.8	1712.04	8574.45	11.5175	36.3828
10	125890	8630.88	1500.91	8760.41	9.86507	38.0148
11	100000	8823.46	1305.95	8919.58	8.41919	39.7569
12	79433	8973.52	1129.97	9044.39	7.17708	41.4289
13	63096	9093.21	972.031	9145.02	6.10154	43.2459
14	50119	9189.42	833.331	9227.13	5.18162	45.183
15	39811	9271.73	710.195	9298.89	4.38018	46.895
16	31623	9324.96	604.252	9344.52	3.70755	48.467
17	25119	9376.03	524.883	9390.71	3.20415	50.1491
18	19953	9418.31	455.313	9429.31	2.76772	51.6561
19	15849	9452.14	397.432	9460.49	2.40768	53.4581
20	12589	9484.11	349.368	9490.55	2.10966	55.2151
21	10000	9512.95	310.564	9518.02	1.86984	57.0172
22	7943.3	9543.25	279.244	9547.33	1.67605	58.6542
23	6309.6	9568.14	253.627	9571.5	1.51841	60.3612
24	5011.9	9589.53	233.012	9592.36	1.39193	61.9383
25	3981.1	9612.22	217.028	9614.67	1.29343	63.7553
26	3162.3	9637.47	204.838	9639.64	1.2176	65.4223
27	2511.9	9661.14	195.261	9663.11	1.15785	67.5694
28	1995.3	9671.92	187.181	9673.73	1.10871	69.1564
29	1584.9	9696.91	183.267	9698.65	1.08274	71.0534
30	1258.9	9726.65	181.285	9728.34	1.06775	72.5905
31	1000	9748.91	182.02	9750.61	1.06964	74.3225
32	794.33	9764.96	182.674	9766.67	1.07171	76.0095
33	630.96	9790.81	186.666	9792.59	1.09223	77.5416
34	501.19	9808.92	191.997	9810.8	1.12135	79.4936
35	398.11	9836.17	200.602	9838.21	1.16834	81.1706
36	316.23	9860.46	210.137	9862.7	1.22085	83.6877
37	251.19	9886.41	223.638	9888.94	1.29585	85.7797
38	199.53	9913.42	238.699	9916.29	1.37932	87.4267
39	158.49	9940.69	259.104	9944.06	1.49308	89.3338
40	125.89	9971.76	281.389	9975.72	1.61638	91.0608
41	100	10003	309.962	10007.8	1.77485	93.0028
42	79.433	10040.5	339.22	10046.2	1.93502	94.6699
43	63.096	10088.7	382.519	10095.9	2.17137	96.9369
44	50.119	10143.6	408.621	10151.8	2.30684	98.804
45	39.811	10192.3	454.79	10202.5	2.55489	100.916
46	31.623	10260.1	500.738	10272.3	2.79407	102.968
47	25.119	10323.5	547.979	10338	3.03845	105.31
48	19.953	10395.6	601.764	10413	3.31296	108.202
49	15.849	10481	652.763	10501.3	3.5638	110.424
50	12.589	10566.4	717.69	10590.7	3.88569	112.861
51	10	10651.4	781.856	10680.1	4.19819	115.618
52	7.9433	10749.9	857.886	10784.1	4.56277	118.435
53	6.3096	10845.5	940.489	10886.2	4.95613	120.987
54	5.0119	10947.7	1040.27	10997.1	5.42802	123.979
55	3.9811	11058.1	1154.73	11118.2	5.96144	127.366
56	3.1623	11179.4	1294.83	11254.1	6.60673	131.379
57	2.5119	11299.6	1457.88	11393.3	7.3517	134.436
58	1.9953	11435.7	1656.41	11555.1	8.24171	137.523
59	1.5849	11577.8	1890.29	11731.1	9.2728	140.8
60	1.2589	11738.2	2178.34	11938.6	10.5132	144.147
61	1	11904	2516.5	12167.1	11.9365	147.939
62	0.79433	12119	2937.08	12469.8	13.6232	152.016
63	0.63096	12320.6	3420.92	12786.7	15.5178	155.873
64	0.50119	12521.7	4053.79	13161.6	17.9388	160.335
65	0.39811	12794.3	4806.68	13667.4	20.5907	165.227
66	0.31623	13078	5790.25	14302.5	23.8812	170.459
67	0.25119	13458.5	6861.13	15106.5	27.0124	176.406
68	0.19953	13815.3	8326.71	16130.6	31.078	183.064
69	0.15849	14213.9	9999.5	17378.9	35.1264	191.041
70	0.12589	14781.6	12082.8	19091.7	39.2633	200.263
71	0.1	15566.5	14396	21202.9	42.7628	210.785