File: data/Z_s15_1.2.txt
Index	Frequency (Hz)	Z' (Ω)	-Z'' (Ω)	Z (Ω)	-Phase (°)	Time (s)
1	1000000	2947	2305.75	3741.83	38.0398	26.0416
2	794330	3317.64	2111.87	3932.78	32.4791	28.7737
3	630960	3732.92	2057.66	4262.47	28.8644	31.7857
4	501190	4130.02	1973.94	4577.5	25.5454	34.6328
5	398110	4575.67	1836.42	4930.44	21.8678	36.8148
6	316230	4903.2	1723.67	5197.35	19.3686	39.6569
7	251190	5097.01	1534.67	5323.03	16.7567	42.5189
8	199530	5366.59	1418.23	5550.82	14.8032	45.016
9	158490	5598.31	1292.08	5745.49	12.9962	47.418
10	125890	5789.66	1162.91	5905.3	11.3573	49.8601
11	100000	5952.18	1037.68	6041.95	9.88931	52.8321
12	79433	6085.43	918.584	6154.37	8.58389	55.2291
13	63096	6200.77	808.327	6253.23	7.42715	58.1012
14	50119	6292.8	706.277	6332.31	6.40384	60.0482
15	39811	6374.65	613.599	6404.11	5.49813	61.9903
16	31623	6431.95	529.493	6453.71	4.70611	63.9673
17	25119	6483.98	461.694	6500.39	4.07289	66.2694
18	19953	6527.42	402.097	6539.8	3.52503	68.7214
19	15849	6566.35	351.478	6575.75	3.06396	71.2834
20	12589	6595.27	308.377	6602.48	2.67705	74.1205
21	10000	6624.15	272.976	6629.77	2.35978	77.4026
22	7943.3	6647.71	244.615	6652.21	2.10735	80.1046
23	6309.6	6671.46	221.481	6675.13	1.90142	82.5217
24	5011.9	6695.61	203.303	6698.7	1.73918	84.8487
25	3981.1	6712.75	188.483	6715.39	1.60835	87.5257
26	3162.3	6731.02	176.573	6733.34	1.50268	89.7928
27	2511.9	6750.19	168.323	6752.29	1.42843	92.1848
28	1995.3	6770.56	162.593	6772.52	1.37567	95.0569
29	1584.9	6788.22	158.247	6790.06	1.33544	96.9839
30	1258.9	6807.35	156.955	6809.16	1.32082	98.756
31	1000	6825.51	157.304	6827.33	1.32023	100.888
32	794.33	6842.03	159.075	6843.88	1.33187	102.835
33	630.96	6863.52	163.443	6865.46	1.36415	104.922
34	501.19	6884.97	169.324	6887.06	1.40881	106.659
35	398.11	6903.33	176.809	6905.6	1.46715	108.811
36	316.23	6927.89	187.639	6930.43	1.55145	110.483
37	251.19	6946.07	199.728	6948.94	1.64703	112.95
38	199.53	6971.52	216.155	6974.87	1.77591	114.862
39	158.49	6993.79	234.329	6997.72	1.919	116.834
40	125.89	7021.6	256.792	7026.29	2.09447	118.721
41	100	7050.82	282.775	7056.49	2.29663	120.753
42	79.433	7084.74	313.601	7091.68	2.5345	122.915
43	63.096	7122.41	351.148	7131.06	2.8225	125.047
44	50.119	7173.6	386.751	7184.02	3.086	127.539
45	39.811	7217.68	430.132	7230.49	3.41046	129.407
46	31.623	7275.35	476.749	7290.96	3.74919	131.804
47	25.119	7341.31	525.699	7360.11	4.09586	133.996
48	19.953	7409.43	586.376	7432.59	4.52491	136.513
49	15.849	7486.69	643.774	7514.32	4.91472	138.975
50	12.589	7573.96	707.632	7606.95	5.33763	141.417
51	10	7661.72	779.677	7701.29	5.81057	144.299
52	7.9433	7760.38	854.585	7807.3	6.28418	147.301
53	6.3096	7862.47	947.075	7919.3	6.86848	150.393
54	5.0119	7976.23	1043.21	8044.16	7.45145	153.705
55	3.9811	8085.83	1159.87	8168.6	8.16308	156.827
56	3.1623	8206.45	1295.94	8308.15	8.97387	159.969
57	2.5119	8339.55	1456.26	8465.75	9.90518	163.036
58	1.9953	8472.04	1645.24	8630.31	10.9899	166.133
59	1.5849	8618.86	1882.44	8822.03	12.3205	169.34
60	1.2589	8785.98	2154.46	9046.28	13.778	172.597
61	1	8940.26	2492.34	9281.16	15.5772	176.299
62	0.79433	9151.29	2916.98	9604.94	17.6797	180.096
63	0.63096	9346.05	3393.89	9943.19	19.9578	184.254
64	0.50119	9586.31	4004.98	10389.3	22.6743	188.856
65	0.39811	9842.72	4756.75	10931.9	25.7933	193.833
66	0.31623	10150.8	5669.45	11626.7	29.1844	198.99
67	0.25119	10484.3	6730.2	12458.6	32.6977	204.947
68	0.19953	10902.9	8154.94	13615.3	36.7951	211.809
69	0.15849	11342.3	9787.78	14981.6	40.7924	219.661
70	0.12589	11847	11756	16689.9	44.7792	229.608
71	0.1	12620.9	14196.7	18995.6	48.3627	240.471