File: data/Z_s14_1.5.txt
Index	Frequency (Hz)	Z' (Ω)	-Z'' (Ω)	Z (Ω)	-Phase (°)	Time (s)
1	1000000	3299.58	2659.31	4237.83	38.8672	20.8545
2	794330	3739.16	2443.25	4466.63	33.1615	22.3615
3	630960	4205.09	2286.68	4786.61	28.5368	24.2936
4	501190	4675.26	2157.38	5149.01	24.7707	26.1706
5	398110	5177.19	1958.87	5535.38	20.7249	27.8126
6	316230	5521.66	1788.24	5804.01	17.945	29.4097
7	251190	5699.85	1551.1	5907.13	15.2233	32.1737
8	199530	5962.31	1396.46	6123.67	13.1819	33.8508
9	158490	6170.79	1238.33	6293.81	11.3472	35.4078
10	125890	6339.69	1086.6	6432.13	9.7258	36.7548
11	100000	6474.88	944.749	6543.44	8.30144	38.1918
12	79433	6582.46	817.402	6633.02	7.07868	39.5789
13	63096	6669.22	704.469	6706.32	6.02979	41.0359
14	50119	6736.93	604.443	6763.99	5.1269	42.5179
15	39811	6796.62	517.642	6816.3	4.35534	43.9749
16	31623	6835.49	441.379	6849.73	3.69455	45.437
17	25119	6869.76	383.996	6880.48	3.19931	47.014
18	19953	6903.54	334.705	6911.64	2.7757	48.476
19	15849	6928.42	293.605	6934.64	2.42656	50.0031
20	12589	6954.13	260.51	6959.01	2.14536	52.2501
21	10000	6974.48	233.683	6978.39	1.91901	53.8271
22	7943.3	6996.89	211.908	7000.1	1.73473	55.2692
23	6309.6	7015.64	195.51	7018.36	1.59629	56.8162
24	5011.9	7033.44	182.168	7035.8	1.48365	58.2932
25	3981.1	7051.44	171.919	7053.53	1.39663	59.9702
26	3162.3	7069.74	164.837	7071.66	1.33566	61.6373
27	2511.9	7083.76	160.46	7085.58	1.29763	63.3543
28	1995.3	7101.07	158.045	7102.82	1.27499	67.9864
29	1584.9	7116.3	158.079	7118.06	1.27254	70.9184
30	1258.9	7138.21	160.001	7140	1.28405	72.7655
31	1000	7157.25	162.939	7159.11	1.30414	74.5325
32	794.33	7174.91	168.581	7176.89	1.34597	76.7096
33	630.96	7196.56	175.909	7198.71	1.40023	78.4916
34	501.19	7216.52	184.951	7218.89	1.4681	80.3336
35	398.11	7241.3	196.969	7243.98	1.5581	81.9806
36	316.23	7264.05	211.642	7267.13	1.66887	83.7127
37	251.19	7283.62	228.162	7287.19	1.79423	85.6147
38	199.53	7308.81	251.702	7313.15	1.97238	87.3667
39	158.49	7336.06	276.637	7341.28	2.15956	89.2238
40	125.89	7369.94	307.146	7376.34	2.38645	91.2358
41	100	7403.24	340.784	7411.08	2.63557	92.9929
42	79.433	7440.69	384.851	7450.63	2.96084	94.9499
43	63.096	7501.95	426.154	7514.05	3.25123	96.8269
44	50.119	7542.58	494.007	7558.74	3.74728	99.144
45	39.811	7610.88	539.961	7630.01	4.0581	101.066
46	31.623	7677.97	600.681	7701.43	4.47339	103.333
47	25.119	7762.13	660.026	7790.14	4.86026	105.38
48	19.953	7853.65	737.078	7888.17	5.36159	107.662
49	15.849	7954.37	804.737	7994.98	5.77691	110.159
50	12.589	8062.08	879.946	8109.96	6.22896	112.416
51	10	8179.8	967.825	8236.86	6.7478	115.188
52	7.9433	8300.07	1061.63	8367.69	7.28892	118.065
53	6.3096	8427.98	1156.18	8506.91	7.81129	120.947
54	5.0119	8564.57	1273.69	8658.76	8.45883	123.854
55	3.9811	8706.91	1406.77	8819.83	9.17795	126.776
56	3.1623	8855.02	1563.63	8992.01	10.0141	129.754
57	2.5119	9014.78	1747.63	9182.62	10.9714	132.836
58	1.9953	9178.75	1968.87	9387.54	12.1066	136.118
59	1.5849	9360.53	2232.83	9623.15	13.4165	139.51
60	1.2589	9542.26	2548.41	9876.7	14.9527	142.977
61	1	9744.88	2935.22	10177.3	16.7627	149.146
62	0.79433	9967.46	3402.08	10532.1	18.8458	152.678
63	0.63096	10212.4	3968.75	10956.4	21.2372	156.73
64	0.50119	10450.9	4689.14	11454.7	24.1649	161.132
65	0.39811	10730.1	5527.24	12070	27.2538	165.739
66	0.31623	11055.7	6591.26	12871.4	30.8029	170.901
67	0.25119	11370.1	7932.09	13863.5	34.9008	176.753
68	0.19953	11886.8	9491.07	15211	38.6059	183.511
69	0.15849	12362.6	11432.6	16838.6	42.7617	191.033
70	0.12589	12911.6	13785.3	18887.7	46.8744	200.265
71	0.1	13431.2	16805.4	21513.2	51.3674	211.167