File: data/Z_s1_1.2.txt
Index	Frequency (Hz)	Z' (Ω)	-Z'' (Ω)	Z (Ω)	-Phase (°)	Time (s)
1	1000000	2367.31	1471.39	2787.32	31.8628	22.1855
2	794330	2570.16	1337.98	2897.57	27.5007	23.8376
3	630960	2801.01	1252.31	3068.21	24.089	25.7696
4	501190	3028.59	1162.53	3244.05	20.9993	27.4716
5	398110	3254.54	1040.41	3416.79	17.7281	29.4287
6	316230	3429.67	949.872	3558.77	15.4805	31.0657
7	251190	3513.65	818.599	3607.75	13.1146	32.9327
8	199530	3654.27	739.815	3728.41	11.445	34.5798
9	158490	3766.94	659.321	3824.21	9.92781	36.5368
10	125890	3859.56	581.879	3903.17	8.57352	38.1088
11	100000	3932.18	509.262	3965.02	7.37938	40.0659
12	79433	3991.97	443.655	4016.55	6.34165	41.7779
13	63096	4038.99	385.352	4057.33	5.44997	43.8399
14	50119	4078.94	334.208	4092.61	4.68407	45.657
15	39811	4111.21	289.492	4121.39	4.02785	47.509
16	31623	4134.83	251.224	4142.46	3.4769	49.396
17	25119	4159.03	221.168	4164.91	3.04399	51.4081
18	19953	4177.28	195.611	4181.86	2.68105	53.2301
19	15849	4196.23	175.067	4199.88	2.389	55.2072
20	12589	4208.06	158.103	4211.03	2.15168	56.8892
21	10000	4222.74	145.101	4225.24	1.96801	58.7912
22	7943.3	4236.42	135.237	4238.58	1.8284	60.4732
23	6309.6	4249.36	128.06	4251.29	1.72616	62.3053
24	5011.9	4262.92	123.111	4264.7	1.65421	63.9123
25	3981.1	4274.18	120.368	4275.88	1.61311	65.6693
26	3162.3	4287.29	119.512	4288.95	1.59676	67.3464
27	2511.9	4301.35	120.579	4303.04	1.60574	69.2884
28	1995.3	4313.83	123.378	4315.6	1.63824	70.9354
29	1584.9	4329.02	128.177	4330.92	1.69596	72.5275
30	1258.9	4341.06	134.603	4343.15	1.77599	74.2595
31	1000	4358.11	143.452	4360.47	1.88527	75.9065
32	794.33	4374.58	153.786	4377.28	2.01337	77.9486
33	630.96	4391.69	167.444	4394.88	2.18348	79.4756
34	501.19	4412.55	183.123	4416.35	2.37645	81.3126
35	398.11	4436.5	201.894	4441.09	2.60558	82.8447
36	316.23	4458.87	222.62	4464.42	2.85826	84.5967
37	251.19	4487.67	247.683	4494.5	3.15905	86.1237
38	199.53	4516.33	275.408	4524.72	3.48961	87.8958
39	158.49	4550.38	306.246	4560.68	3.85026	89.7228
40	125.89	4591.84	341.17	4604.49	4.24922	91.7598
41	100	4635.24	378.715	4650.69	4.67088	93.6469
42	79.433	4684.32	417.354	4702.88	5.09137	95.5189
43	63.096	4734.64	455.871	4756.54	5.49973	97.4759
44	50.119	4803.21	497.732	4828.93	5.91616	99.863
45	39.811	4872.48	556.894	4904.2	6.52025	101.75
46	31.623	4945.55	609.183	4982.93	7.02221	104.227
47	25.119	5026.73	664.266	5070.43	7.52785	106.259
48	19.953	5120.37	729.547	5172.08	8.10889	108.846
49	15.849	5211.86	798.098	5272.61	8.70614	110.988
50	12.589	5313.88	873.649	5385.22	9.3364	114.09
51	10	5422.23	954.612	5505.62	9.9849	116.447
52	7.9433	5537.03	1043.6	5634.52	10.6737	118.814
53	6.3096	5654.93	1155.79	5771.84	11.5513	121.316
54	5.0119	5783.19	1279.97	5923.14	12.4799	123.873
55	3.9811	5920.52	1426.56	6089.96	13.5473	126.64
56	3.1623	6061.08	1596.32	6267.77	14.7551	129.788
57	2.5119	6218.78	1802.47	6474.73	16.1639	132.56
58	1.9953	6379.15	2045.22	6698.99	17.7764	135.522
59	1.5849	6557.54	2339.85	6962.48	19.6373	138.509
60	1.2589	6750.43	2691.43	7267.19	21.7374	141.451
61	1	6954.7	3121.04	7622.91	24.169	145.073
62	0.79433	7188.12	3644.93	8059.44	26.8885	149.065
63	0.63096	7435.77	4275.3	8577.23	29.8973	152.882
64	0.50119	7701.3	5044.88	9206.57	33.2275	157.014
65	0.39811	8019.17	5975.15	10000.5	36.6901	161.366
66	0.31623	8396.02	7159.68	11034.2	40.4558	167.128
67	0.25119	8807.94	8546.68	12273	44.1375	172.735
68	0.19953	9350.18	10280.9	13896.9	47.7144	179.237
69	0.15849	9938	12351.5	15853.2	51.18	186.665
70	0.12589	10591.7	14880.4	18265.1	54.5572	195.872
71	0.1	11325.9	18074.1	21329.6	57.9272	206.584