File: data/Z_s13_1.3.txt
Index	Frequency (Hz)	Z' (Ω)	-Z'' (Ω)	Z (Ω)	-Phase (°)	Time (s)
1	1000000	4412.81	4888.68	6585.75	47.9288	16.2994
2	794330	5338.05	4501.98	6983.02	40.1435	17.9564
3	630960	6406.07	4360.88	7749.51	34.2447	19.7535
4	501190	7353.4	4262.6	8499.55	30.0999	21.5205
5	398110	8587.57	4150.74	9538.08	25.7965	23.4625
6	316230	9353.25	3923.6	10142.9	22.7576	25.0696
7	251190	9864.78	3516.88	10472.9	19.6216	28.0436
8	199530	10489.7	3247.24	10980.8	17.2007	30.0907
9	158490	11020.1	2948.81	11407.8	14.9805	31.8777
10	125890	11457.7	2640.75	11758.1	12.9787	33.6497
11	100000	11827.9	2339.28	12057	11.1874	35.4618
12	79433	12127.9	2052.84	12300.4	9.60716	37.1438
13	63096	12365	1790.4	12494	8.2389	39.0708
14	50119	12566.9	1551.61	12662.4	7.03855	41.1579
15	39811	12728.1	1331.88	12797.5	5.97376	42.7099
16	31623	12846.9	1139.42	12897.3	5.06845	44.1069
17	25119	12943.5	990.959	12981.4	4.37803	45.494
18	19953	13038.6	859.142	13066.9	3.7699	46.816
19	15849	13108.3	747.239	13129.6	3.26261	48.233
20	12589	13173.7	653.16	13189.9	2.83843	49.65
21	10000	13207	562.323	13219	2.43804	51.1421
22	7943.3	13256.3	501.828	13265.8	2.16794	52.5491
23	6309.6	13309.5	451.244	13317.2	1.9418	54.0561
24	5011.9	13357.3	409.872	13363.6	1.75759	55.4381
25	3981.1	13397.2	374.823	13402.5	1.60258	56.8552
26	3162.3	13433.2	346.774	13437.6	1.47875	58.2322
27	2511.9	13466.5	324.017	13470.4	1.37832	59.5742
28	1995.3	13499	306.318	13502.5	1.29992	61.0662
29	1584.9	13536	293.153	13539.2	1.24068	62.6783
30	1258.9	13563.9	283.172	13566.9	1.19598	64.2453
31	1000	13596.9	276.516	13599.7	1.16505	65.6523
32	794.33	13634.3	272.879	13637.1	1.14657	67.1794
33	630.96	13660.2	271.895	13662.9	1.14027	69.5414
34	501.19	13695.6	274.922	13698.4	1.14999	71.5634
35	398.11	13730.8	280.501	13733.7	1.17031	73.2105
36	316.23	13757.4	289.173	13760.5	1.20415	74.9975
37	251.19	13794.2	302.989	13797.6	1.25829	76.5995
38	199.53	13822.2	319.32	13825.9	1.32341	78.0666
39	158.49	13861.4	339.825	13865.6	1.40438	80.1536
40	125.89	13901.4	367.783	13906.3	1.51549	82.1806
41	100	13949.5	393.869	13955	1.61734	83.6527
42	79.433	13986.4	433.3	13993.1	1.77447	85.3497
43	63.096	14021.3	471.592	14029.2	1.92636	86.8717
44	50.119	14111.4	531.493	14121.4	2.15698	88.7588
45	39.811	14159.8	576.562	14171.5	2.3317	90.3758
46	31.623	14242.7	630.269	14256.6	2.53381	93.0928
47	25.119	14317.2	705.87	14334.6	2.82253	95.0199
48	19.953	14415.1	780.452	14436.2	3.09905	96.9769
49	15.849	14509.8	859.77	14535.2	3.39107	99.0639
50	12.589	14620.3	950.707	14651.2	3.7205	101.161
51	10	14744.5	1036.35	14780.8	4.02057	103.643
52	7.9433	14872.8	1141.12	14916.5	4.38743	106.125
53	6.3096	15018	1253.08	15070.2	4.76962	109.322
54	5.0119	15159	1377.75	15221.5	5.19315	112.179
55	3.9811	15322.7	1523.93	15398.3	5.67974	115.291
56	3.1623	15489.9	1690.88	15581.9	6.22977	118.178
57	2.5119	15685.4	1886.67	15798.4	6.8587	120.895
58	1.9953	15880.8	2107.92	16020.1	7.56089	123.967
59	1.5849	16092.6	2374.78	16266.9	8.39454	127.419
60	1.2589	16336.8	2745.94	16566	9.54129	132.839
61	1	16591.2	3054.16	16870	10.4304	138.238
62	0.79433	16866.4	3504.27	17226.6	11.7371	141.6
63	0.63096	17161.8	4016.34	17625.5	13.1718	145.522
64	0.50119	17454.3	4667.13	18067.5	14.9702	149.624
65	0.39811	17858	5457.29	18673.2	16.9928	154.511
66	0.31623	18216.8	6421.83	19315.6	19.4187	159.718
67	0.25119	18708	7452.19	20137.6	21.7195	165.575
68	0.19953	19247.2	8928.49	21217.3	24.8859	172.267
69	0.15849	19800	10610.7	22463.9	28.1865	180.064
70	0.12589	20571.7	12529.1	24086.8	31.3432	189.012
71	0.1	21173.8	14746.4	25802.8	34.8551	199.654