File: data/Z_s13_1.4.txt
Index	Frequency (Hz)	Z' (Ω)	-Z'' (Ω)	Z (Ω)	-Phase (°)	Time (s)
1	1000000	4411.45	5046.26	6702.66	48.84	21.5606
2	794330	5480.5	4652.25	7188.83	40.327	23.2076
3	630960	6537.86	4508.75	7941.82	34.5916	25.1646
4	501190	7541.36	4405.77	8734.01	30.2941	28.6617
5	398110	8847.17	4309.09	9840.77	25.9688	30.7037
6	316230	9657.09	4081.11	10484	22.9091	32.1008
7	251190	10185.1	3683.46	10830.7	19.8826	34.5048
8	199530	10848.1	3408.49	11371	17.4427	35.8668
9	158490	11407.5	3098.51	11820.8	15.1961	37.2439
10	125890	11866.1	2774.94	12186.2	13.1624	38.7509
11	100000	12255.4	2459.12	12499.7	11.346	40.6679
12	79433	12576.4	2160.43	12760.7	9.74734	42.1099
13	63096	12832.4	1884.73	12970	8.35546	43.532
14	50119	13046.3	1631.73	13147.9	7.12911	47.869
15	39811	13216.3	1400.9	13290.3	6.05067	49.5661
16	31623	13340.2	1198.84	13394	5.13517	51.7131
17	25119	13452.2	1042.74	13492.5	4.43241	53.5651
18	19953	13543.8	904.824	13574	3.82211	55.9972
19	15849	13626.6	785.433	13649.2	3.29887	58.2542
20	12589	13691.2	686.308	13708.4	2.8697	59.7363
21	10000	13723.9	589.275	13736.5	2.45865	61.8783
22	7943.3	13781	526.085	13791	2.18618	63.7203
23	6309.6	13823.8	471.792	13831.9	1.95468	65.2374
24	5011.9	13873.3	426.748	13879.8	1.76189	66.5794
25	3981.1	13911.3	389.828	13916.7	1.60515	68.5114
26	3162.3	13951.8	360.606	13956.4	1.48057	69.8935
27	2511.9	14000.6	336.557	14004.7	1.37705	72.2005
28	1995.3	14029.2	318.081	14032.9	1.29883	73.5675
29	1584.9	14059.3	303.485	14062.5	1.2366	74.8395
30	1258.9	14101.3	291.521	14104.4	1.18432	76.1016
31	1000	14141.1	284.737	14144	1.15351	77.5236
32	794.33	14166.5	280.349	14169.3	1.13371	79.1406
33	630.96	14205.5	280.684	14208.3	1.13195	80.5877
34	501.19	14234.3	283.084	14237.1	1.13932	82.1597
35	398.11	14275.6	288.379	14278.5	1.15726	83.4017
36	316.23	14308.5	294.926	14311.5	1.18081	84.8337
37	251.19	14340.4	308.94	14343.7	1.23415	86.2458
38	199.53	14379	324.821	14382.7	1.29409	87.6828
39	158.49	14409.2	346.741	14413.4	1.37849	89.0348
40	125.89	14455.7	369.775	14460.5	1.4653	90.4518
41	100	14492.8	406.41	14498.5	1.60628	91.8739
42	79.433	14539.1	438.128	14545.7	1.72605	93.3509
43	63.096	14598.8	467.14	14606.2	1.83276	95.2679
44	50.119	14646.4	512.778	14655.3	2.00514	96.955
45	39.811	14722.3	587.2	14734	2.28403	98.502
46	31.623	14791	650.457	14805.3	2.51805	100.204
47	25.119	14879.9	717.806	14897.2	2.76181	102.116
48	19.953	14961	792.498	14982	3.03218	104.203
49	15.849	15080.1	876.648	15105.6	3.32701	106.765
50	12.589	15191.4	962.672	15221.9	3.62596	109.507
51	10	15313.6	1057.73	15350.1	3.95122	111.934
52	7.9433	15456.5	1164.46	15500.3	4.3084	114.331
53	6.3096	15607.7	1283.56	15660.4	4.70136	116.868
54	5.0119	15748.7	1409.53	15811.6	5.11442	119.985
55	3.9811	15921.7	1556.02	15997.5	5.58178	122.522
56	3.1623	16100.4	1724.75	16192.5	6.11447	125.174
57	2.5119	16290.5	1921.26	16403.4	6.72625	127.982
58	1.9953	16491.2	2148.81	16630.6	7.42381	131.219
59	1.5849	16715.6	2417.7	16889.6	8.23002	134.051
60	1.2589	16943.8	2732.99	17162.8	9.16278	137.088
61	1	17234.9	3116.41	17514.4	10.2495	140.44
62	0.79433	17533.4	3548.52	17888.9	11.4413	143.772
63	0.63096	17816.1	4081.71	18277.6	12.9039	147.344
64	0.50119	18155.7	4703.34	18755	14.5236	151.946
65	0.39811	18517.3	5521.82	19323.1	16.6045	156.283
66	0.31623	18974.4	6500.59	20057.1	18.9113	161.31
67	0.25119	19343.9	7607.68	20786.1	21.469	166.862
68	0.19953	19874.7	8909.49	21780.3	24.1459	173.209
69	0.15849	20455.3	10585.3	23031.9	27.3609	180.572
70	0.12589	21132.9	12796.9	24705.4	31.1968	189.224
71	0.1	22126.5	15018.2	26741.9	34.1665	199.956