File: data/Z_s2_1.txt
Index	Frequency (Hz)	Z' (Ω)	-Z'' (Ω)	Z (Ω)	-Phase (°)	Time (s)
1	1000000	2836.63	2924.09	4073.92	45.8698	16.7104
2	794330	3339.24	2678.86	4280.98	38.7379	18.6525
3	630960	4105.46	2752.41	4942.73	33.839	21.0095
4	501190	4709.97	2596.66	5378.33	28.8684	23.7566
5	398110	5324.35	2379.9	5832.03	24.0839	25.9636
6	316230	5730.06	2154.4	6121.69	20.6054	28.1906
7	251190	5944.56	1865.8	6230.49	17.4254	30.0727
8	199530	6246.72	1690.32	6471.37	15.1412	31.9097
9	158490	6495.34	1516.56	6670.03	13.1422	34.0567
10	125890	6698.93	1349.83	6833.57	11.3925	35.9738
11	100000	6872.55	1192.44	6975.23	9.84325	37.9758
12	79433	7022.58	1047.93	7100.34	8.48721	40.0479
13	63096	7139.47	912.867	7197.59	7.28642	42.0749
14	50119	7241.14	791.57	7284.27	6.23856	44.1719
15	39811	7328.92	681.488	7360.54	5.31243	45.954
16	31623	7388.65	584.713	7411.75	4.52476	48.231
17	25119	7438.74	506.656	7455.98	3.89642	50.228
18	19953	7483.29	438.761	7496.14	3.35553	52.8401
19	15849	7521.21	381.781	7530.89	2.90587	54.8771
20	12589	7554.5	334.271	7561.89	2.53357	56.4992
21	10000	7582.26	294.687	7587.99	2.2257	58.5762
22	7943.3	7608.2	262.415	7612.73	1.97541	60.6032
23	6309.6	7631.51	236.124	7635.16	1.7722	62.8753
24	5011.9	7655.02	215.264	7658.04	1.61077	64.8823
25	3981.1	7676.15	198.054	7678.71	1.47797	66.9394
26	3162.3	7693.57	184.856	7695.79	1.3764	69.0164
27	2511.9	7711.99	174.681	7713.97	1.29756	71.1684
28	1995.3	7729.07	167.008	7730.88	1.23784	72.9955
29	1584.9	7745.93	162.378	7747.63	1.20092	74.7475
30	1258.9	7765.98	159.498	7767.61	1.17658	76.6045
31	1000	7783.49	160.641	7785.15	1.18234	78.4116
32	794.33	7800.64	163.149	7802.35	1.19815	81.0086
33	630.96	7821.4	167.718	7823.2	1.22844	82.8557
34	501.19	7843.32	175.11	7845.28	1.27897	85.5177
35	398.11	7862.85	185.236	7865.03	1.34955	87.9897
36	316.23	7886.65	197.716	7889.13	1.43609	89.9818
37	251.19	7910.31	212.9	7913.18	1.5417	92.4488
38	199.53	7934.74	230.911	7938.1	1.66691	94.3759
39	158.49	7962.03	251.636	7966	1.8102	96.3629
40	125.89	7993.96	274.769	7998.68	1.9686	98.2549
41	100	8023.68	300.745	8029.32	2.14657	100.522
42	79.433	8065.69	329.211	8072.4	2.3373	102.824
43	63.096	8107.56	356.315	8115.39	2.51644	104.756
44	50.119	8158.35	400.36	8168.17	2.80946	107.453
45	39.811	8208.13	434.581	8219.63	3.0307	109.635
46	31.623	8262.92	475.847	8276.61	3.29592	111.772
47	25.119	8322.46	521.813	8338.8	3.58772	114.864
48	19.953	8391.91	577.828	8411.78	3.9389	117.766
49	15.849	8457.19	637.347	8481.17	4.30975	121.083
50	12.589	8527.56	711.901	8557.23	4.77212	123.73
51	10	8609.04	787.654	8644.99	5.22753	126.487
52	7.9433	8696.35	882.752	8741.03	5.79615	129.55
53	6.3096	8790.99	989.712	8846.52	6.42346	132.787
54	5.0119	8900.4	1115.8	8970.07	7.14563	136.189
55	3.9811	9008.2	1263.13	9096.33	7.98199	139.876
56	3.1623	9133.85	1437.08	9246.21	8.94138	142.753
57	2.5119	9270.05	1641.3	9414.23	10.0404	146.52
58	1.9953	9423.27	1881.4	9609.25	11.2909	149.952
59	1.5849	9595.82	2172.22	9838.61	12.7551	153.389
60	1.2589	9777.53	2515.59	10095.9	14.4283	156.836
61	1	9981.24	2917.92	10399	16.2958	160.823
62	0.79433	10238.7	3411.87	10792.2	18.4297	165.505
63	0.63096	10490	3997.54	11225.9	20.8608	169.662
64	0.50119	10770.2	4673.01	11740.3	23.4553	173.904
65	0.39811	11100.4	5513.97	12394.4	26.4153	179.171
66	0.31623	11507.3	6540.22	13236	29.6119	184.459
67	0.25119	11965.5	7784.41	14274.8	33.0469	190.876
68	0.19953	12443.7	9372.38	15578.4	36.9864	197.848
69	0.15849	13045.3	11173.3	17176.2	40.5802	205.56
70	0.12589	13730.3	13377.1	19169.5	44.2536	215.012
71	0.1	14663.8	16017.5	21716.1	47.5262	226.124