File: data/Z_s2_1.2.txt
Index	Frequency (Hz)	Z' (Ω)	-Z'' (Ω)	Z (Ω)	-Phase (°)	Time (s)
1	1000000	3327.95	2737.31	4309.07	39.4381	63.0573
2	794330	3807.72	2447.27	4526.35	32.7294	64.9393
3	630960	4287.16	2382.54	4904.72	29.0626	66.9964
4	501190	4769.39	2255.42	5275.8	25.3092	68.8134
5	398110	5299.3	2103.08	5701.36	21.6462	70.6504
6	316230	5669.3	1955.39	5997.04	19.0297	72.2975
7	251190	5885.03	1723.46	6132.2	16.3229	74.1245
8	199530	6189	1578.64	6387.16	14.3094	75.8365
9	158490	6439.54	1423.72	6595.05	12.467	77.7336
10	125890	6643.1	1267.58	6762.95	10.8029	79.4106
11	100000	6809.7	1118.29	6900.92	9.32586	81.4476
12	79433	6953.07	981.078	7021.94	8.03142	82.9597
13	63096	7065.44	854.113	7116.88	6.89281	85.0217
14	50119	7159.76	740.711	7197.97	5.90651	86.6287
15	39811	7237.32	638.429	7265.43	5.04121	88.4108
16	31623	7297.74	548.761	7318.35	4.30032	90.0428
17	25119	7342.78	477.922	7358.31	3.72398	91.7448
18	19953	7385.97	416.006	7397.68	3.22371	93.6069
19	15849	7423.45	363.495	7432.34	2.8033	95.7039
20	12589	7455.57	319.668	7462.42	2.45513	97.4509
21	10000	7479.97	283.236	7485.33	2.16852	99.623
22	7943.3	7511.18	253.627	7515.46	1.93395	101.425
23	6309.6	7532.68	228.887	7536.15	1.74045	103.452
24	5011.9	7553.51	209.337	7556.41	1.58748	105.099
25	3981.1	7577.11	193.158	7579.57	1.46028	107.146
26	3162.3	7595.34	179.693	7597.47	1.35527	108.898
27	2511.9	7613.14	169.614	7615.03	1.27629	110.985
28	1995.3	7634.73	161.431	7636.43	1.2113	112.987
29	1584.9	7648.75	156.856	7650.36	1.17483	114.764
30	1258.9	7666.51	153.772	7668.05	1.14907	116.741
31	1000	7685.66	152.832	7687.18	1.13919	118.373
32	794.33	7703.05	154.313	7704.6	1.14763	119.985
33	630.96	7724.98	158.172	7726.6	1.17299	121.697
34	501.19	7738.81	164.123	7740.55	1.21494	123.299
35	398.11	7761.32	171.94	7763.23	1.26909	125.146
36	316.23	7781.07	181.504	7783.18	1.33626	126.953
37	251.19	7802.45	196.422	7804.92	1.44208	128.916
38	199.53	7825.46	212.114	7828.34	1.55266	130.473
39	158.49	7851.58	229.803	7854.94	1.67648	132.265
40	125.89	7877.16	251.858	7881.19	1.8313	134.037
41	100	7907.94	268.796	7912.5	1.94677	135.919
42	79.433	7946.38	302.314	7952.13	2.17872	137.716
43	63.096	7972.47	307.929	7978.41	2.2119	139.513
44	50.119	8020.5	385.796	8029.77	2.75388	141.49
45	39.811	8072.67	400.054	8082.57	2.83706	143.582
46	31.623	8142.21	439.154	8154.04	3.08729	145.749
47	25.119	8171.82	486.045	8186.27	3.40384	148.361
48	19.953	8241.27	535.905	8258.68	3.72054	150.898
49	15.849	8303.5	595.278	8324.81	4.10052	153.11
50	12.589	8382.28	651.636	8407.58	4.44521	155.517
51	10	8447.76	731.436	8479.37	4.94853	158.414
52	7.9433	8521.18	820.327	8560.57	5.49887	161.416
53	6.3096	8624.86	923.366	8674.15	6.11073	164.028
54	5.0119	8717.91	1033.13	8778.91	6.75839	166.97
55	3.9811	8825.87	1164.86	8902.41	7.51858	170.017
56	3.1623	8945.91	1325.45	9043.57	8.42777	173.134
57	2.5119	9077.69	1509.38	9202.32	9.44043	176.531
58	1.9953	9216.05	1726.92	9376.45	10.6131	179.913
59	1.5849	9373.31	1990.51	9582.34	11.9892	183.316
60	1.2589	9539.7	2291.69	9811.1	13.508	186.518
61	1	9738.44	2651.2	10092.9	15.2291	190.23
62	0.79433	9964.3	3088.73	10432	17.2224	194.202
63	0.63096	10215.8	3623.4	10839.4	19.5288	198.419
64	0.50119	10450.9	4251.85	11282.7	22.1385	202.576
65	0.39811	10754.8	4986.32	11854.5	24.8741	207.048
66	0.31623	11124.6	5933.53	12608.1	28.0741	212.78
67	0.25119	11536.1	7038.8	13513.9	31.3897	218.767
68	0.19953	11974	8487.07	14676.8	35.3286	225.484
69	0.15849	12508.8	10127.3	16094.5	38.9943	233.151
70	0.12589	13167.8	12120.2	17896.6	42.6277	242.464
71	0.1	13940.5	14401.9	20043.8	45.9326	253.421