File: data/Z_s2_1.5.txt
Index	Frequency (Hz)	Z' (Ω)	-Z'' (Ω)	Z (Ω)	-Phase (°)	Time (s)
1	1000000	3313.64	2951.26	4437.36	41.6896	22.9865
2	794330	3834.61	2787.41	4740.67	36.0137	25.2936
3	630960	4393.15	2638.44	5124.56	30.9882	27.2156
4	501190	4924.86	2511.74	5528.39	27.0222	29.8977
5	398110	5535.35	2344.93	6011.55	22.9589	32.2447
6	316230	5958.57	2176.86	6343.75	20.0689	34.2467
7	251190	6203.65	1916.73	6493	17.1695	37.3908
8	199530	6531.25	1745.96	6760.59	14.9666	39.1178
9	158490	6804.55	1568.49	6982.98	12.9803	40.7949
10	125890	7028.87	1392.82	7165.54	11.2083	42.6119
11	100000	7213.85	1226.48	7317.37	9.64899	44.3789
12	79433	7362.88	1071.51	7440.44	8.28007	46.696
13	63096	7479.79	930.494	7537.44	7.09123	48.303
14	50119	7578.88	804.727	7621.48	6.06097	50.015
15	39811	7661.84	692.755	7693.09	5.16643	51.7571
16	31623	7723.27	594.828	7746.14	4.40409	53.4291
17	25119	7776	517.619	7793.21	3.80835	55.0961
18	19953	7819.67	450.244	7832.62	3.29536	56.6582
19	15849	7859.73	393.112	7869.56	2.86331	58.3952
20	12589	7890.53	345.084	7898.07	2.50418	59.9322
21	10000	7919.92	305.328	7925.8	2.20777	61.7893
22	7943.3	7951.46	273.083	7956.14	1.96698	63.6063
23	6309.6	7975.01	246.06	7978.81	1.76724	65.4633
24	5011.9	7995.34	223.733	7998.47	1.60288	67.0854
25	3981.1	8019.01	205.165	8021.64	1.46558	68.7674
26	3162.3	8039.37	190.119	8041.62	1.3547	70.3744
27	2511.9	8055.31	178.741	8057.29	1.27114	72.1715
28	1995.3	8077.18	170.304	8078.97	1.20788	74.1285
29	1584.9	8092.57	162.809	8094.2	1.15254	75.6455
30	1258.9	8113.47	157.947	8115.01	1.11525	77.2625
31	1000	8128.26	156.466	8129.76	1.10279	78.9296
32	794.33	8144.09	157.521	8145.62	1.10806	80.7766
33	630.96	8163.95	159.353	8165.51	1.11822	82.3636
34	501.19	8182.26	164.013	8183.91	1.14834	84.0807
35	398.11	8200.9	171.328	8202.69	1.19681	85.5827
36	316.23	8221.65	181.529	8223.66	1.26485	87.3347
37	251.19	8237.37	193.009	8239.64	1.34224	88.9368
38	199.53	8262.75	207.851	8265.36	1.44098	90.7688
39	158.49	8284.86	225.071	8287.91	1.55614	92.4108
40	125.89	8316.14	244.2	8319.72	1.68198	94.3779
41	100	8336.49	265.367	8340.71	1.82322	96.1449
42	79.433	8369.62	293.479	8374.76	2.00824	98.0969
43	63.096	8414.79	333.813	8421.41	2.27172	100.509
44	50.119	8443.74	366.944	8451.71	2.48837	102.596
45	39.811	8492.77	391.329	8501.79	2.6382	104.618
46	31.623	8540.56	435.205	8551.64	2.91712	106.8
47	25.119	8595.63	476.701	8608.83	3.17429	108.977
48	19.953	8653.62	528.558	8669.74	3.49525	111.179
49	15.849	8719.16	587.597	8738.93	3.85542	113.651
50	12.589	8785.08	644.286	8808.67	4.19449	116.038
51	10	8862.23	720.51	8891.47	4.64799	118.695
52	7.9433	8934.91	806.514	8971.23	5.15785	121.347
53	6.3096	9028.68	900.992	9073.52	5.69881	124.344
54	5.0119	9124.78	1013.6	9180.9	6.33859	127.391
55	3.9811	9231.26	1145.88	9302.11	7.07596	130.109
56	3.1623	9347.99	1295.61	9437.34	7.89083	132.626
57	2.5119	9467.63	1475.78	9581.96	8.85978	135.253
58	1.9953	9611.39	1678.39	9756.83	9.9054	138.08
59	1.5849	9766.98	1932.16	9956.27	11.1901	141.022
60	1.2589	9942.23	2232.28	10189.8	12.6545	144.014
61	1	10128.4	2583.58	10452.7	14.3101	149.348
62	0.79433	10344.5	2999.19	10770.5	16.1685	152.555
63	0.63096	10580.3	3479.81	11137.9	18.2058	156.187
64	0.50119	10812.9	4073.89	11554.9	20.6445	160.084
65	0.39811	11126.3	4820.19	12125.6	23.4234	164.401
66	0.31623	11478.8	5733.8	12831.2	26.5427	169.628
67	0.25119	11791.8	6791.05	13607.6	29.9381	175.305
68	0.19953	12320.9	8057.43	14721.6	33.1833	181.902
69	0.15849	12806.1	9590.56	15999.2	36.8297	189.325
70	0.12589	13272.4	11529.8	17581.1	40.981	198.177
71	0.1	14023.7	13995.3	19812.4	44.942	209.034