File: data/Z_s2_1.3.txt
Index	Frequency (Hz)	Z' (Ω)	-Z'' (Ω)	Z (Ω)	-Phase (°)	Time (s)
1	1000000	3345.25	2889.24	4420.23	40.8166	20.3255
2	794330	3840.53	2696.4	4692.57	35.0723	21.8825
3	630960	4379.01	2543.32	5064.02	30.1479	23.4945
4	501190	4884.3	2442.7	5461.06	26.5703	25.1116
5	398110	5476.92	2264.66	5926.67	22.4647	26.9586
6	316230	5881.14	2111.09	6248.56	19.7461	28.7506
7	251190	6119.24	1868.09	6398.04	16.9764	31.5997
8	199530	6445.5	1711.74	6668.92	14.8728	33.0167
9	158490	6713.14	1543.16	6888.22	12.9458	34.7837
10	125890	6939.57	1374.5	7074.38	11.2034	36.2558
11	100000	7121.63	1210.75	7223.81	9.64858	38.1528
12	79433	7272.6	1061.53	7349.67	8.30441	39.6798
13	63096	7395.95	924.629	7453.52	7.12605	41.4219
14	50119	7497.35	801.156	7540.04	6.09939	43.1189
15	39811	7579.97	690.242	7611.33	5.20308	44.8609
16	31623	7638.82	592.299	7661.75	4.43373	46.523
17	25119	7692.53	515.782	7709.8	3.83592	48.34
18	19953	7736.11	448.982	7749.13	3.32156	49.937
19	15849	7777.5	391.697	7787.36	2.88314	51.5491
20	12589	7816.03	344.094	7823.6	2.52077	53.4061
21	10000	7840.26	303.974	7846.15	2.22029	55.0331
22	7943.3	7866.62	271.502	7871.31	1.97667	56.8352
23	6309.6	7892.9	244.66	7896.69	1.77546	58.4372
24	5011.9	7916.49	222.471	7919.62	1.60972	60.2342
25	3981.1	7935.66	204.702	7938.3	1.47763	61.7763
26	3162.3	7957.4	189.452	7959.65	1.36386	63.5133
27	2511.9	7975.3	177.893	7977.28	1.2778	65.0553
28	1995.3	7997.5	169.348	7999.29	1.21306	66.9423
29	1584.9	8013.17	162.79	8014.82	1.16382	68.4994
30	1258.9	8035.35	158.9	8036.93	1.13288	70.2664
31	1000	8051.22	157.547	8052.76	1.12103	71.8534
32	794.33	8061.79	157.217	8063.32	1.11721	73.6305
33	630.96	8085.54	160.183	8087.13	1.13494	75.3025
34	501.19	8103.73	165.151	8105.41	1.16751	77.1695
35	398.11	8123.85	171.597	8125.67	1.21006	78.9266
36	316.23	8140.48	182.781	8142.53	1.28626	80.6936
37	251.19	8160.62	195.169	8162.95	1.37003	82.4006
38	199.53	8182.92	210.112	8185.62	1.47086	83.9077
39	158.49	8209.36	227.246	8212.5	1.58562	85.5697
40	125.89	8234.83	246.082	8238.5	1.71167	87.2917
41	100	8266.4	271.694	8270.86	1.88248	89.0788
42	79.433	8299.37	297.308	8304.69	2.05163	90.8408
43	63.096	8330.82	331.15	8337.4	2.27631	92.8678
44	50.119	8380.93	368.405	8389.03	2.51696	94.7399
45	39.811	8419.83	394.896	8429.08	2.68525	96.5219
46	31.623	8469.5	437.536	8480.79	2.95728	98.3539
47	25.119	8525.65	477.445	8539.01	3.20527	100.241
48	19.953	8588.78	532.394	8605.27	3.54706	102.323
49	15.849	8651.6	588.699	8671.6	3.8927	104.605
50	12.589	8723.93	654.815	8748.47	4.29255	107.017
51	10	8793.58	726.797	8823.56	4.7248	109.694
52	7.9433	8869.3	810.918	8906.29	5.22402	112.241
53	6.3096	8963.92	908.845	9009.88	5.78939	114.968
54	5.0119	9060.28	1019.56	9117.47	6.42053	117.77
55	3.9811	9165.92	1154.11	9238.3	7.17655	120.537
56	3.1623	9287.52	1307.59	9379.12	8.01398	123.284
57	2.5119	9418.9	1488.5	9535.79	8.98035	126.066
58	1.9953	9557.87	1701.53	9708.15	10.0942	129.209
59	1.5849	9716.09	1947.32	9909.31	11.3332	132.456
60	1.2589	9878.6	2233.6	10128	12.7406	135.793
61	1	10078.9	2603.69	10409.8	14.4846	141.547
62	0.79433	10311	3030.69	10747.2	16.3795	144.729
63	0.63096	10545.6	3515.77	11116.2	18.4377	148.581
64	0.50119	10791.5	4144.04	11559.9	21.0072	152.763
65	0.39811	11074.2	4858.6	12093.1	23.6886	157.51
66	0.31623	11394.5	5758.53	12767	26.8109	162.562
67	0.25119	11791.1	6921.69	13672.6	30.4141	168.419
68	0.19953	12208.8	8178.98	14695.2	33.8191	174.941
69	0.15849	12726.8	9732.98	16021.9	37.4074	182.623
70	0.12589	13312.5	11745.8	17753.5	41.4223	191.576
71	0.1	14148.5	14068.6	19952.6	44.8376	202.313