File: data/Z_s2_1.4.txt
Index	Frequency (Hz)	Z' (Ω)	-Z'' (Ω)	Z (Ω)	-Phase (°)	Time (s)
1	1000000	3389.89	2837.27	4420.57	39.9287	18.7715
2	794330	3834.15	2644.03	4657.42	34.5902	21.0936
3	630960	4384.43	2487	5040.67	29.5634	23.8306
4	501190	4864.2	2366.49	5409.32	25.9434	26.1126
5	398110	5440.7	2202.29	5869.52	22.0371	28.7397
6	316230	5834.26	2043.99	6181.95	19.3075	30.9417
7	251190	6060.6	1802.21	6322.88	16.5606	33.4638
8	199530	6374.25	1647.38	6583.68	14.4906	36.0508
9	158490	6631.9	1481.87	6795.45	12.5956	38.3479
10	125890	6845.2	1317.73	6970.88	10.8964	40.8149
11	100000	7020.89	1160.47	7116.15	9.38545	43.542
12	79433	7162.88	1016.34	7234.62	8.07582	45.494
13	63096	7279.38	884.232	7332.89	6.92583	47.756
14	50119	7374.06	765.314	7413.67	5.9252	50.0481
15	39811	7455.01	659.648	7484.14	5.05658	52.1801
16	31623	7511.1	566.686	7532.45	4.31459	54.6122
17	25119	7561.6	493.148	7577.66	3.7314	56.5892
18	19953	7606.49	429.823	7618.62	3.2342	58.8063
19	15849	7640.65	375.208	7649.86	2.81136	60.9983
20	12589	7673.73	330.019	7680.82	2.46256	63.1503
21	10000	7702.15	292.415	7707.7	2.17421	65.8324
22	7943.3	7732.99	261.4	7737.4	1.93605	67.9894
23	6309.6	7755.28	235.691	7758.86	1.74075	70.4565
24	5011.9	7777.39	215.006	7780.37	1.58354	72.8485
25	3981.1	7796.64	197.185	7799.14	1.44876	74.9006
26	3162.3	7814.18	183.627	7816.33	1.34616	77.6626
27	2511.9	7834.8	172.61	7836.7	1.26209	80.1946
28	1995.3	7854	163.256	7855.7	1.1908	82.2817
29	1584.9	7870.19	157.734	7871.77	1.14817	84.8337
30	1258.9	7888.46	154.535	7889.97	1.12228	87.0258
31	1000	7899.94	151.571	7901.4	1.09916	89.2278
32	794.33	7919.51	152.235	7920.97	1.10125	92.0599
33	630.96	7938.97	154.175	7940.47	1.11255	94.5019
34	501.19	7956.63	159.197	7958.22	1.14622	96.764
35	398.11	7973.11	166.599	7974.85	1.19703	99.501
36	316.23	7994.99	174.721	7996.9	1.25193	102.028
37	251.19	8012.62	187.655	8014.82	1.34161	104.065
38	199.53	8033.27	201.039	8035.78	1.43357	106.577
39	158.49	8059.28	217.73	8062.22	1.54753	108.679
40	125.89	8081	235.909	8084.44	1.67217	111.191
41	100	8112.78	257.194	8116.86	1.8158	114.003
42	79.433	8142.77	283.754	8147.71	1.9958	116.66
43	63.096	8181.38	311.096	8187.29	2.17761	118.947
44	50.119	8217.95	339.078	8224.94	2.36272	121.934
45	39.811	8261.66	375.96	8270.21	2.60554	125.031
46	31.623	8304.41	414.318	8314.74	2.85619	128.169
47	25.119	8361.63	458.746	8374.21	3.14028	130.476
48	19.953	8413.56	508.861	8428.93	3.46109	133.463
49	15.849	8479.31	564.31	8498.07	3.8075	136.59
50	12.589	8539.99	621.479	8562.57	4.16224	139.767
51	10	8614.58	694.306	8642.51	4.60789	143.609
52	7.9433	8694.08	773.997	8728.46	5.08739	146.986
53	6.3096	8775.02	867.927	8817.84	5.64869	150.523
54	5.0119	8870.79	975.663	8924.29	6.2765	154.17
55	3.9811	8982.66	1114.88	9051.58	7.07504	157.652
56	3.1623	9096.79	1264.95	9184.32	7.91645	161.634
57	2.5119	9216.43	1437.41	9327.85	8.86453	165.206
58	1.9953	9357.54	1633.31	9499.01	9.90097	169.183
59	1.5849	9493.37	1869.11	9675.62	11.1383	173.085
60	1.2589	9646.43	2150.55	9883.24	12.5679	176.982
61	1	9834.24	2489.73	10144.5	14.207	181.62
62	0.79433	10056.6	2884.88	10462.2	16.0063	186.067
63	0.63096	10268.4	3385.9	10812.3	18.2494	190.554
64	0.50119	10524.3	3961.71	11245.2	20.6282	195.021
65	0.39811	10790.2	4670.55	11757.7	23.4054	200.178
66	0.31623	11092.1	5565.78	12410.2	26.6465	205.425
67	0.25119	11490.1	6619.98	13260.7	29.9482	211.692
68	0.19953	11948.3	7792.81	14265	33.1127	219.124
69	0.15849	12440.4	9301.14	15533.1	36.7837	226.711
70	0.12589	13033.6	11132.8	17141	40.5028	236.244
71	0.1	13536.7	13341	19005.9	44.5828	247.006