File: data/Z_s3_1.3.txt
Index	Frequency (Hz)	Z' (Ω)	-Z'' (Ω)	Z (Ω)	-Phase (°)	Time (s)
1	1000000	3276.34	2735.74	4268.34	39.8618	39.0178
2	794330	3734.23	2503.07	4495.54	33.8341	41.5449
3	630960	4242.01	2375.78	4861.99	29.2514	43.9169
4	501190	4710.12	2234.05	5213.08	25.3754	46.2739
5	398110	5251.05	2021.64	5626.77	21.0566	48.601
6	316230	5604.26	1864.38	5906.24	18.4009	50.543
7	251190	5794.89	1643.01	6023.3	15.8295	52.6301
8	199530	6077.66	1491.12	6257.91	13.7849	54.2821
9	158490	6307.91	1332.71	6447.16	11.9298	56.1141
10	125890	6497.31	1177.73	6603.18	10.2741	57.9512
11	100000	6651.12	1030.8	6730.52	8.80968	60.2532
12	79433	6774.96	897.77	6834.18	7.54846	62.3702
13	63096	6873.93	777.008	6917.7	6.44917	64.3773
14	50119	6956.56	670.638	6988.81	5.50651	66.7343
15	39811	7021.89	575.481	7045.43	4.68522	68.5764
16	31623	7068.3	494.418	7085.57	4.00125	70.7534
17	25119	7113.03	429.324	7125.98	3.45403	72.6954
18	19953	7151.36	373.363	7161.1	2.98862	74.6925
19	15849	7184.97	326.628	7192.39	2.60287	76.9345
20	12589	7210.37	287.091	7216.09	2.28011	78.7515
21	10000	7238.64	254.442	7243.11	2.01315	81.1436
22	7943.3	7258.8	228.157	7262.39	1.80032	82.9206
23	6309.6	7280.15	206.728	7283.09	1.62654	85.0327
24	5011.9	7302.38	189.647	7304.85	1.48767	87.6647
25	3981.1	7316.69	174.81	7318.78	1.36865	89.6218
26	3162.3	7332.23	163.597	7334.06	1.27817	91.8538
27	2511.9	7350.1	155.683	7351.75	1.21341	93.9958
28	1995.3	7373.02	149.958	7374.55	1.16516	95.9279
29	1584.9	7394.66	146.188	7396.11	1.13256	98.6899
30	1258.9	7407.4	144.581	7408.81	1.11819	100.632
31	1000	7422.83	143.516	7424.22	1.10764	102.924
32	794.33	7443.2	146.235	7444.63	1.12553	105.836
33	630.96	7456.88	148.26	7458.36	1.13902	107.648
34	501.19	7470.19	154.376	7471.78	1.18389	109.88
35	398.11	7491.83	162.275	7493.59	1.24085	111.962
36	316.23	7517.15	171.545	7519.11	1.30729	113.854
37	251.19	7533.43	184.45	7535.69	1.40256	116.561
38	199.53	7556.67	198.827	7559.28	1.50719	118.563
39	158.49	7580.74	214.668	7583.78	1.62204	120.56
40	125.89	7605.06	233.748	7608.65	1.76048	123.067
41	100	7639.44	256.354	7643.74	1.92193	124.984
42	79.433	7672.1	282.819	7677.31	2.11116	127.401
43	63.096	7703.22	310.004	7709.45	2.30453	129.983
44	50.119	7739.6	347.121	7747.38	2.56799	132.541
45	39.811	7791.73	379.453	7800.96	2.78807	134.848
46	31.623	7838.6	419.015	7849.79	3.05985	137.455
47	25.119	7888.01	461.294	7901.49	3.34686	140.047
48	19.953	7933.65	507.184	7949.85	3.65783	142.519
49	15.849	7989.2	556.764	8008.57	3.98648	145.226
50	12.589	8060.28	624.828	8084.46	4.43267	148.258
51	10	8135.39	701.028	8165.53	4.92503	151.085
52	7.9433	8218.61	794.632	8256.94	5.52259	154.052
53	6.3096	8303.13	893.09	8351.02	6.13917	157.184
54	5.0119	8383.91	1004.59	8443.88	6.83283	160.346
55	3.9811	8489.69	1144.79	8566.52	7.67973	163.528
56	3.1623	8593.74	1305.25	8692.29	8.63627	167.15
57	2.5119	8714.57	1500.92	8842.87	9.77223	171.707
58	1.9953	8850.81	1730.2	9018.34	11.0609	174.924
59	1.5849	9001.5	2000.05	9221.02	12.5271	179.146
60	1.2589	9164.91	2322.64	9454.63	14.2209	183.253
61	1	9360.47	2708.75	9744.52	16.1395	189.168
62	0.79433	9571.59	3181.31	10086.4	18.3853	192.99
63	0.63096	9819.69	3720.51	10500.9	20.7509	197.077
64	0.50119	10075.2	4390.93	10990.4	23.5484	201.139
65	0.39811	10362.9	5244.82	11614.6	26.8447	205.576
66	0.31623	10705.3	6260.44	12401.5	30.3189	210.768
67	0.25119	11175.4	7411.58	13409.7	33.5526	216.65
68	0.19953	11599	8900.15	14620.2	37.4998	223.277
69	0.15849	12090.6	10651.2	16113.1	41.3782	231.004
70	0.12589	12767.8	12770.5	18058.3	45.006	240.092
71	0.1	13468.2	15172.8	20288.1	48.4061	250.749