File: data/Z_s3_1.4.txt
Index	Frequency (Hz)	Z' (Ω)	-Z'' (Ω)	Z (Ω)	-Phase (°)	Time (s)
1	1000000	3299.73	2539.65	4163.9	37.5838	56.9902
2	794330	3686.3	2289.56	4339.46	31.8444	58.7122
3	630960	4152.58	2155.84	4678.84	27.4364	60.5342
4	501190	4567.17	2026.63	4996.62	23.9287	62.4863
5	398110	5033.93	1843.09	5360.73	20.1094	64.4383
6	316230	5352.39	1693.04	5613.77	17.5529	66.2704
7	251190	5526.43	1467.84	5718.04	14.8745	68.0724
8	199530	5775.84	1327.58	5926.45	12.9447	69.7794
9	158490	5980.29	1183.77	6096.32	11.1967	71.4614
10	125890	6146.83	1043.54	6234.78	9.6352	73.1235
11	100000	6279.13	912.277	6345.06	8.2665	74.9455
12	79433	6386.03	792.94	6435.07	7.07808	76.5775
13	63096	6472.97	686.063	6509.23	6.05013	78.5196
14	50119	6541.53	591.627	6568.23	5.16787	80.1716
15	39811	6603.45	508.704	6623.02	4.40514	81.9536
16	31623	6643.46	436.575	6657.79	3.75978	83.4457
17	25119	6679.09	379.765	6689.88	3.25426	85.2527
18	19953	6714.88	331.07	6723.04	2.82262	86.8747
19	15849	6741.59	289.997	6747.82	2.46312	88.8368
20	12589	6768.56	256.142	6773.41	2.1672	90.6338
21	10000	6785.89	228.209	6789.73	1.92612	92.5758
22	7943.3	6807.39	205.277	6810.49	1.72723	94.1729
23	6309.6	6827.94	186.973	6830.5	1.56857	95.9099
24	5011.9	6844.77	172.13	6846.93	1.44056	97.5119
25	3981.1	6864.96	159.724	6866.82	1.33284	99.309
26	3162.3	6878.54	150.48	6880.19	1.25324	100.871
27	2511.9	6896.62	143.418	6898.11	1.19131	102.603
28	1995.3	6909.7	138.33	6911.08	1.14689	104.27
29	1584.9	6928.73	135.231	6930.05	1.11813	105.852
30	1258.9	6939.08	133.708	6940.37	1.10389	107.614
31	1000	6960.54	134.146	6961.84	1.10408	109.311
32	794.33	6971.84	136.407	6973.17	1.12087	111.243
33	630.96	6991.95	140.373	6993.36	1.15013	112.78
34	501.19	7004.34	145.98	7005.86	1.19395	114.592
35	398.11	7022.9	154.409	7024.6	1.25953	116.094
36	316.23	7043.5	163.945	7045.41	1.33338	117.911
37	251.19	7060.34	176.186	7062.53	1.42948	119.538
38	199.53	7083.3	189.865	7085.85	1.53543	121.275
39	158.49	7103.71	206.504	7106.71	1.66511	123.002
40	125.89	7129.09	224.29	7132.62	1.802	124.944
41	100	7155.36	244.922	7159.55	1.96042	126.526
42	79.433	7184.31	268.986	7189.34	2.1442	128.524
43	63.096	7227.22	298.48	7233.38	2.36494	130.376
44	50.119	7256.76	332.073	7264.35	2.62006	132.463
45	39.811	7296.69	359.028	7305.52	2.81692	134.245
46	31.623	7340.73	399.191	7351.58	3.1127	136.332
47	25.119	7388.02	439.227	7401.07	3.4023	138.209
48	19.953	7438.95	488.143	7454.95	3.75436	140.546
49	15.849	7500.16	542.811	7519.78	4.13947	142.998
50	12.589	7563.29	604.955	7587.44	4.57311	146.34
51	10	7630.65	677.119	7660.63	5.07096	148.907
52	7.9433	7699.51	760.847	7737.01	5.64351	151.794
53	6.3096	7779.49	857.642	7826.62	6.29111	154.691
54	5.0119	7868.23	970.195	7927.82	7.0294	157.483
55	3.9811	7960.04	1103.43	8036.15	7.89215	160.175
56	3.1623	8067.93	1263.43	8166.26	8.90019	163.247
57	2.5119	8182.11	1451.69	8309.89	10.0609	166.464
58	1.9953	8309.22	1672.89	8475.95	11.3832	169.501
59	1.5849	8450.02	1939.97	8669.85	12.93	172.568
60	1.2589	8606.59	2254.16	8896.89	14.6767	175.88
61	1	8786.75	2637.01	9173.92	16.7051	179.682
62	0.79433	9004.25	3086.2	9518.47	18.9191	183.395
63	0.63096	9212.54	3636.22	9904.19	21.5393	187.597
64	0.50119	9457.95	4300.74	10389.9	24.4524	191.674
65	0.39811	9750.13	5075.9	10992.3	27.5014	196.181
66	0.31623	10102	6059.96	11780.2	30.9586	201.453
67	0.25119	10430.6	7262.8	12710.1	34.8494	207.225
68	0.19953	10913.8	8637.01	13917.9	38.3576	213.737
69	0.15849	11448.8	10347.7	15432.1	42.1079	221.419
70	0.12589	11976.3	12488.1	17302.7	46.1985	230.426
71	0.1	12661	15147.1	19741.7	50.1087	241.689