File: data/Z_s3_1.txt
Index	Frequency (Hz)	Z' (Ω)	-Z'' (Ω)	Z (Ω)	-Phase (°)	Time (s)
1	1000000	2762.01	2631.99	3815.24	43.6191	34.9348
2	794330	3098.59	2499.28	3980.91	38.8892	36.9668
3	630960	3884.22	2408.3	4570.24	31.7998	39.0088
4	501190	4385.46	2236.19	4922.68	27.0175	41.2409
5	398110	4901.29	2011.94	5298.16	22.3177	43.3729
6	316230	5231.07	1801.76	5532.67	19.0055	45.33
7	251190	5399.77	1540.33	5615.17	15.9213	47.502
8	199530	5638.91	1377.81	5804.8	13.7306	49.499
9	158490	5832.44	1222.64	5959.21	11.8393	51.8511
10	125890	5990.76	1077.93	6086.97	10.2002	53.9731
11	100000	6124.18	945.513	6196.74	8.77661	56.2002
12	79433	6232.16	825.383	6286.58	7.54431	58.3422
13	63096	6324.93	717.41	6365.49	6.47116	60.1292
14	50119	6399.29	620.804	6429.33	5.541	62.2213
15	39811	6460.91	534.032	6482.94	4.72509	64.1633
16	31623	6507.31	458.911	6523.47	4.03396	66.2253
17	25119	6548.62	398.773	6560.75	3.48468	68.2374
18	19953	6583.06	346.115	6592.16	3.00964	70.3194
19	15849	6614.75	302.223	6621.65	2.61598	72.3465
20	12589	6639.42	265.354	6644.72	2.28868	74.3335
21	10000	6664.2	235.115	6668.35	2.02058	76.8405
22	7943.3	6679.27	210.713	6682.6	1.80693	78.7426
23	6309.6	6701.38	191.017	6704.1	1.63272	81.1646
24	5011.9	6719.57	175.145	6721.85	1.49307	83.4167
25	3981.1	6736.34	162.35	6738.3	1.38059	85.3137
26	3162.3	6754.93	153.093	6756.66	1.29832	87.6257
27	2511.9	6770.19	145.787	6771.76	1.2336	89.7078
28	1995.3	6787.38	140.875	6788.84	1.18903	92.1198
29	1584.9	6800.52	137.956	6801.92	1.16215	94.5019
30	1258.9	6817.54	136.861	6818.91	1.15005	96.2339
31	1000	6831.42	138.5	6832.82	1.16145	98.4859
32	794.33	6846.38	141.291	6847.84	1.18226	100.673
33	630.96	6866.4	146.165	6867.96	1.21947	102.985
34	501.19	6881.84	152.903	6883.54	1.2728	105.597
35	398.11	6902.19	161.246	6904.08	1.33828	107.859
36	316.23	6923.12	172.698	6925.27	1.42895	110.406
37	251.19	6941.26	185.8	6943.74	1.5333	112.623
38	199.53	6965.94	200.525	6968.83	1.64889	114.89
39	158.49	6993.49	217.446	6996.87	1.7809	116.852
40	125.89	7017.17	236.316	7021.14	1.92881	119.479
41	100	7047.03	258.311	7051.77	2.09925	121.436
42	79.433	7079.34	282.599	7084.98	2.28597	123.528
43	63.096	7117.15	311.685	7123.97	2.50758	126.245
44	50.119	7150.87	342.183	7159.05	2.73963	128.482
45	39.811	7197.26	373.036	7206.92	2.967	130.615
46	31.623	7245.19	409.407	7256.75	3.23419	133.217
47	25.119	7292.82	452.951	7306.87	3.55403	135.674
48	19.953	7346.36	502.596	7363.53	3.91375	138.441
49	15.849	7407.01	556.412	7427.88	4.29597	141.318
50	12.589	7464.18	619.807	7489.87	4.74681	144.54
51	10	7536.02	697.103	7568.2	5.28498	147.582
52	7.9433	7611.94	784.411	7652.25	5.88357	150.729
53	6.3096	7689.07	884.541	7739.78	6.56239	153.916
54	5.0119	7779.5	1004.62	7844.1	7.35824	156.718
55	3.9811	7880.14	1145.44	7962.95	8.27048	159.94
56	3.1623	7988.37	1312.56	8095.49	9.33082	163.242
57	2.5119	8106.78	1507.16	8245.69	10.5318	166.604
58	1.9953	8236.78	1738.41	8418.23	11.9176	170.056
59	1.5849	8389.99	2018.65	8629.42	13.5283	173.648
60	1.2589	8551.41	2343.54	8866.73	15.3258	177.26
61	1	8736.84	2740.47	9156.56	17.415	181.207
62	0.79433	8956.17	3209.54	9513.89	19.7157	184.875
63	0.63096	9214.04	3773.76	9956.9	22.2723	188.872
64	0.50119	9474.93	4451.23	10468.4	25.1637	193.864
65	0.39811	9760.98	5274.8	11095.1	28.3866	198.761
66	0.31623	10127.6	6292.84	11923.4	31.855	203.988
67	0.25119	10480	7494.16	12883.8	35.5682	210.09
68	0.19953	11042.1	9004.95	14248.4	39.1976	216.782
69	0.15849	11580.6	10819.9	15848.7	43.0549	224.599
70	0.12589	12301.3	12951.2	17862.2	46.4743	233.961
71	0.1	12947.7	15464.4	20169.1	50.0619	244.804