File: data/Z_s3_1.2.txt
Index	Frequency (Hz)	Z' (Ω)	-Z'' (Ω)	Z (Ω)	-Phase (°)	Time (s)
1	1000000	3264.43	2502.12	4113.04	37.4695	75.1195
2	794330	3633.81	2263.93	4281.35	31.9237	77.5416
3	630960	4101.19	2129.52	4621.1	27.4403	80.3736
4	501190	4531.04	1983.72	4946.26	23.6442	83.2757
5	398110	4976.46	1822.33	5299.63	20.1122	85.6627
6	316230	5288.7	1671.19	5546.46	17.5361	87.7348
7	251190	5457.56	1453.33	5647.75	14.9117	89.9068
8	199530	5705.74	1317.17	5855.8	12.999	92.2188
9	158490	5912.61	1176.87	6028.6	11.2572	94.4759
10	125890	6074.56	1038.85	6162.75	9.70463	96.3879
11	100000	6209.97	909.66	6276.24	8.33364	98.2699
12	79433	6314.51	791.523	6363.93	7.14475	100.042
13	63096	6401.88	686.123	6438.54	6.11734	101.809
14	50119	6475.45	592.703	6502.52	5.22975	103.616
15	39811	6534	509.38	6553.83	4.45767	105.358
16	31623	6577.33	437.208	6591.85	3.80297	106.985
17	25119	6615.05	380.431	6625.98	3.29145	109.147
18	19953	6648.66	331.627	6656.92	2.85548	112.279
19	15849	6678.76	290.547	6685.07	2.49097	114.456
20	12589	6702.22	255.984	6707.11	2.18729	118.568
21	10000	6727.63	228.367	6731.51	1.94414	120.41
22	7943.3	6742.93	205.513	6746.06	1.74574	122.582
23	6309.6	6761.7	186.756	6764.27	1.58209	124.359
24	5011.9	6780.76	171.639	6782.93	1.44999	126.281
25	3981.1	6799.9	160.128	6801.79	1.34899	128.148
26	3162.3	6815.67	150.397	6817.33	1.26411	129.986
27	2511.9	6831.06	143.753	6832.57	1.20556	131.748
28	1995.3	6850.5	138.455	6851.9	1.15784	133.52
29	1584.9	6863.66	135.727	6865.01	1.13286	135.112
30	1258.9	6877.33	135.156	6878.66	1.12586	137.529
31	1000	6898.08	135.272	6899.41	1.12343	139.541
32	794.33	6912.55	137.826	6913.93	1.14224	141.708
33	630.96	6928.26	142.335	6929.72	1.17692	144.77
34	501.19	6942.91	147.39	6944.47	1.21614	146.492
35	398.11	6964.56	156.585	6966.32	1.28797	149.114
36	316.23	6981.31	166.014	6983.28	1.36223	151.246
37	251.19	7002.01	177.798	7004.27	1.45457	153.083
38	199.53	7023.34	193.122	7026	1.57508	155.105
39	158.49	7044.29	209.189	7047.39	1.70097	156.957
40	125.89	7069.27	228.059	7072.95	1.84776	159.124
41	100	7094.71	247.207	7099.01	1.9956	160.746
42	79.433	7125.78	271.845	7130.97	2.18475	162.928
43	63.096	7165.54	299.931	7171.82	2.39685	165.805
44	50.119	7197.13	328.253	7204.61	2.61138	168.167
45	39.811	7238.53	361.562	7247.56	2.85953	170.224
46	31.623	7281.59	396.167	7292.36	3.1142	172.146
47	25.119	7333.26	440.031	7346.45	3.4339	174.323
48	19.953	7386.96	490.673	7403.23	3.80025	176.555
49	15.849	7442.76	546.598	7462.8	4.20028	178.882
50	12.589	7512.13	614.083	7537.19	4.67328	181.494
51	10	7576.33	686.293	7607.35	5.17594	184.082
52	7.9433	7652.16	771.403	7690.94	5.75646	186.859
53	6.3096	7723.52	864.228	7771.72	6.38459	189.676
54	5.0119	7816.64	981.577	7878.02	7.15747	192.563
55	3.9811	7917.77	1121.72	7996.84	8.06347	195.395
56	3.1623	8027.44	1284.93	8129.63	9.09406	198.142
57	2.5119	8142.94	1478.12	8276.01	10.2884	201.139
58	1.9953	8263.73	1688.69	8434.51	11.5493	204.401
59	1.5849	8420.12	1967.51	8646.94	13.1522	207.748
60	1.2589	8575.2	2278.59	8872.77	14.8807	211.71
61	1	8743.78	2663.29	9140.39	16.9404	215.397
62	0.79433	8954.63	3124.64	9484.13	19.236	218.999
63	0.63096	9180.01	3661.34	9883.22	21.744	222.896
64	0.50119	9429.31	4315.8	10370.1	24.5936	227.098
65	0.39811	9700.73	5132.64	10974.9	27.8832	231.82
66	0.31623	10013.8	6093.54	11722.1	31.3212	237.218
67	0.25119	10450	7287.48	12740.1	34.8906	243.085
68	0.19953	10847	8736.35	13927.7	38.8486	249.567
69	0.15849	11357.9	10455.7	15437.7	42.6316	257.329
70	0.12589	11969.7	12602.1	17380.7	46.4743	266.586
71	0.1	12828	15131.3	19837.2	49.7093	277.238