File: data/Z_s3_1.5.txt
Index	Frequency (Hz)	Z' (Ω)	-Z'' (Ω)	Z (Ω)	-Phase (°)	Time (s)
1	1000000	3272.27	2790.64	4300.63	40.458	41.4039
2	794330	3744.02	2581.04	4547.47	34.5815	47.021
3	630960	4286.52	2440.3	4932.48	29.6527	52.1731
4	501190	4765.22	2327.16	5303.11	26.0292	57.7002
5	398110	5323.9	2124.88	5732.28	21.7579	63.2973
6	316230	5700.14	1952.63	6025.31	18.9094	67.9994
7	251190	5907.7	1706.31	6149.18	16.1102	74.3115
8	199530	6197.34	1543.14	6386.57	13.9824	79.1436
9	158490	6436.25	1376.18	6581.73	12.0691	84.6657
10	125890	6627.77	1213.47	6737.94	10.3753	90.3728
11	100000	6780.05	1059.96	6862.41	8.88541	95.2449
12	79433	6902.97	920.955	6964.14	7.5992	100.762
13	63096	7007.69	796.748	7052.84	6.48646	105.759
14	50119	7090.2	686.362	7123.34	5.52925	111.031
15	39811	7157.99	588.757	7182.17	4.70209	115.858
16	31623	7207.61	503.799	7225.2	3.99836	121.22
17	25119	7249.22	437.214	7262.39	3.45143	126.803
18	19953	7284.73	377.811	7294.52	2.96889	132.22
19	15849	7320	330.651	7327.46	2.58634	137.357
20	12589	7347.53	291.456	7353.31	2.27157	142.239
21	10000	7369.82	258.1	7374.34	2.00575	148.086
22	7943.3	7394.07	231.444	7397.69	1.79285	153.068
23	6309.6	7417.13	209.682	7420.1	1.61932	158.37
24	5011.9	7436.01	191.726	7438.48	1.47695	163.462
25	3981.1	7453.4	176.976	7455.5	1.3602	168.469
26	3162.3	7472.42	164.679	7474.24	1.2625	174.181
27	2511.9	7488.03	155.618	7489.64	1.19057	179.003
28	1995.3	7503.95	148.993	7505.43	1.13748	184.736
29	1584.9	7524.08	144.696	7525.47	1.10173	189.738
30	1258.9	7537.91	142.167	7539.25	1.08049	194.945
31	1000	7552.68	140.919	7554	1.06891	200.352
32	794.33	7569.3	141.984	7570.64	1.07462	205.679
33	630.96	7588.22	145.536	7589.61	1.09875	210.946
34	501.19	7603.64	151.527	7605.15	1.14165	215.908
35	398.11	7622.64	157.858	7624.27	1.18638	220.915
36	316.23	7641.4	165.279	7643.18	1.23908	226.032
37	251.19	7662.05	177.417	7664.1	1.32647	231.184
38	199.53	7682.77	190.561	7685.13	1.42085	236.052
39	158.49	7705.38	206.899	7708.16	1.53809	241.624
40	125.89	7728.69	221.769	7731.88	1.64361	246.216
41	100	7759.01	245.003	7762.87	1.8086	251.523
42	79.433	7785.68	268.432	7790.31	1.97464	256.52
43	63.096	7823.49	286.383	7828.73	2.0964	262.732
44	50.119	7843.23	322.106	7849.84	2.3517	268.439
45	39.811	7892.14	356.046	7900.17	2.58309	273.611
46	31.623	7945.89	393.897	7955.65	2.83797	279.573
47	25.119	7990.48	431.853	8002.14	3.0936	284.73
48	19.953	8035.73	483.971	8050.29	3.44661	290.873
49	15.849	8092.95	530.767	8110.34	3.7523	297.14
50	12.589	8152.31	597.48	8174.18	4.19169	303.372
51	10	8219.18	664.553	8246	4.62253	309.039
52	7.9433	8285.5	744.337	8318.87	5.13345	313.786
53	6.3096	8371.59	835.165	8413.15	5.69708	316.608
54	5.0119	8460.22	949.296	8513.31	6.40221	319.145
55	3.9811	8550.05	1077.48	8617.67	7.18261	322.212
56	3.1623	8648.68	1226.81	8735.26	8.07349	325.259
57	2.5119	8761.55	1407.57	8873.9	9.12673	328.471
58	1.9953	8891.48	1616.77	9037.28	10.3057	331.648
59	1.5849	9032.22	1873.69	9224.51	11.7195	334.845
60	1.2589	9188.55	2167.94	9440.84	13.2756	338.042
61	1	9364.22	2540.79	9702.79	15.1805	343.587
62	0.79433	9567.56	2975.36	10019.5	17.2749	347.094
63	0.63096	9780.35	3497.01	10386.7	19.6747	351.076
64	0.50119	10008.2	4102.84	10816.6	22.291	355.568
65	0.39811	10295.1	4899.58	11401.5	25.4504	360.005
66	0.31623	10596.1	5789.52	12074.6	28.6514	364.732
67	0.25119	10921.3	6941.22	12940.5	32.4387	370.829
68	0.19953	11386.3	8345.6	14117.2	36.2397	378.256
69	0.15849	11826.2	9917.44	15434.2	39.9833	387.093
70	0.12589	12366.1	11932.1	17184.1	43.9767	396.381
71	0.1	12986.5	14493.1	19460.2	48.1382	407.233