File: data/Z_s4_1.5.txt
Index	Frequency (Hz)	Z' (Ω)	-Z'' (Ω)	Z (Ω)	-Phase (°)	Time (s)
1	1000000	2488.92	1789.05	3065.2	35.7088	31.6167
2	794330	2788.39	1640.64	3235.24	30.4718	33.5137
3	630960	3105.69	1547.53	3469.89	26.4866	35.4007
4	501190	3393.69	1441.51	3687.15	23.014	37.1078
5	398110	3696.92	1284.31	3913.65	19.1573	38.9048
6	316230	3917.65	1173.26	4089.57	16.672	40.5068
7	251190	4022.35	1020.41	4149.76	14.2348	42.3489
8	199530	4195.83	919.488	4295.4	12.3606	44.1409
9	158490	4334.73	816.569	4410.97	10.6683	46.0329
10	125890	4446.24	717.902	4503.83	9.17197	47.635
11	100000	4535.99	626.868	4579.1	7.86837	49.442
12	79433	4608.9	544.321	4640.93	6.73556	51.074
13	63096	4666.15	470.932	4689.86	5.76306	52.8011
14	50119	4714.07	406.791	4731.59	4.932	54.5281
15	39811	4752.15	350.39	4765.05	4.21696	56.1851
16	31623	4783.43	302.596	4792.99	3.61966	57.9672
17	25119	4812.28	264.774	4819.56	3.14927	59.6892
18	19953	4834.94	232.27	4840.52	2.75037	61.3812
19	15849	4852.51	204.395	4856.81	2.41196	63.0333
20	12589	4874.07	181.771	4877.46	2.13577	64.7053
21	10000	4885.91	161.834	4888.59	1.89709	66.3523
22	7943.3	4906.53	148.292	4908.77	1.73114	68.1444
23	6309.6	4919.26	135.909	4921.14	1.58256	69.7714
24	5011.9	4933.47	125.716	4935.08	1.4597	71.4784
25	3981.1	4948.25	117.873	4949.65	1.36459	73.0354
26	3162.3	4958.08	111.695	4959.34	1.29053	74.8525
27	2511.9	4972.23	106.954	4973.38	1.23226	76.3845
28	1995.3	4984.44	104.068	4985.53	1.19608	78.3315
29	1584.9	4995.29	102.564	4996.35	1.17624	79.8136
30	1258.9	5007.05	102.954	5008.11	1.17793	81.6806
31	1000	5019.26	104.37	5020.35	1.19123	83.3026
32	794.33	5031.7	107.16	5032.84	1.22004	85.0097
33	630.96	5041.61	111.665	5042.85	1.26882	86.5217
34	501.19	5058.35	117.709	5059.72	1.33304	88.3037
35	398.11	5072.32	126.2	5073.89	1.42523	89.8808
36	316.23	5085.95	135.778	5087.76	1.52925	91.7578
37	251.19	5103.7	148.228	5105.85	1.66359	93.5348
38	199.53	5120.47	161.612	5123.02	1.80776	95.1469
39	158.49	5138.04	177.961	5141.12	1.9837	96.8289
40	125.89	5163.11	196.153	5166.83	2.17569	98.5659
41	100	5184.16	215.721	5188.64	2.3828	100.308
42	79.433	5213.93	238.996	5219.4	2.62449	102.11
43	63.096	5247	267.554	5253.82	2.91908	103.972
44	50.119	5277.38	294.028	5285.56	3.18892	105.894
45	39.811	5318.16	321.07	5327.85	3.45488	107.666
46	31.623	5361.14	353.274	5372.77	3.77007	109.578
47	25.119	5407.08	388.293	5421	4.10747	111.49
48	19.953	5456.14	428.925	5472.97	4.49496	113.762
49	15.849	5505.6	472.936	5525.87	4.90971	116.069
50	12.589	5563.56	522.619	5588.05	5.36639	118.336
51	10	5624.7	578.226	5654.34	5.86946	121.078
52	7.9433	5688.85	644.579	5725.25	6.46437	123.465
53	6.3096	5758.26	718.498	5802.91	7.11244	126.182
54	5.0119	5834.01	808.233	5889.73	7.88744	128.884
55	3.9811	5916.25	913.723	5986.39	8.77956	131.757
56	3.1623	6003.27	1039.37	6092.58	9.82243	134.619
57	2.5119	6104.32	1186.92	6218.64	11.0033	137.351
58	1.9953	6208.85	1362.68	6356.63	12.3786	140.323
59	1.5849	6328.43	1568.31	6519.86	13.9186	143.46
60	1.2589	6459.37	1818.79	6710.55	15.7258	146.742
61	1	6595.76	2110.82	6925.29	17.7461	150.349
62	0.79433	6763.36	2469.73	7200.18	20.0603	153.861
63	0.63096	6935.39	2900.66	7517.54	22.6967	157.703
64	0.50119	7116.63	3414.28	7893.28	25.6299	161.835
65	0.39811	7351.2	4079.95	8407.5	29.0305	166.417
66	0.31623	7599.91	4875.42	9029.31	32.6806	171.549
67	0.25119	7841.85	5795.9	9751.26	36.4681	177.116
68	0.19953	8195.25	6931.95	10733.8	40.2262	183.408
69	0.15849	8552.09	8344.45	11948.6	44.2959	191.041
70	0.12589	8935.17	10087.6	13475.8	48.4668	200.023
71	0.1	9478.27	12327.2	15549.8	52.4436	210.485