File: data/Z_s4_1.2.txt
Index	Frequency (Hz)	Z' (Ω)	-Z'' (Ω)	Z (Ω)	-Phase (°)	Time (s)
1	1000000	2435.93	1521.92	2872.28	31.9963	20.7565
2	794330	2642.67	1391.41	2986.6	27.7676	22.6635
3	630960	2890.41	1295.55	3167.48	24.1431	25.9306
4	501190	3125.88	1197.03	3347.24	20.954	29.0077
5	398110	3366.45	1073.51	3533.47	17.6868	32.8997
6	316230	3549.21	979.304	3681.84	15.4253	34.6468
7	251190	3632.81	847.232	3730.29	13.1277	36.1138
8	199530	3777.8	765.407	3854.55	11.4535	37.5808
9	158490	3893.86	681.565	3953.06	9.92823	39.1728
10	125890	3989.14	601.418	4034.22	8.57356	40.6199
11	100000	4065.07	526.43	4099.01	7.37879	42.2469
12	79433	4127.08	458.759	4152.5	6.34286	43.7439
13	63096	4175.97	398.203	4194.92	5.44701	45.446
14	50119	4218.02	345.112	4232.11	4.67744	47.023
15	39811	4253.7	298.287	4264.15	4.01125	48.95
16	31623	4279.02	258.209	4286.8	3.45322	50.4771
17	25119	4301.39	226.502	4307.35	3.01429	52.1191
18	19953	4321.25	199.091	4325.83	2.6379	53.6861
19	15849	4341.55	176.352	4345.13	2.32605	55.4431
20	12589	4356.91	157.689	4359.76	2.07279	57.0052
21	10000	4370.02	142.129	4372.33	1.86282	58.5622
22	7943.3	4382.64	129.895	4384.57	1.69766	60.1592
23	6309.6	4398.79	119.911	4400.42	1.5615	61.7763
24	5011.9	4410.46	112.051	4411.88	1.45533	63.3733
25	3981.1	4418.64	106.148	4419.92	1.37614	64.8003
26	3162.3	4431.96	101.588	4433.12	1.31308	66.4023
27	2511.9	4441.74	98.6584	4442.83	1.27243	67.8944
28	1995.3	4454.79	97.6115	4455.86	1.25524	69.5314
29	1584.9	4465.11	97.6547	4466.18	1.25289	70.9284
30	1258.9	4475.29	98.8433	4476.38	1.26525	72.4405
31	1000	4485.68	102.138	4486.84	1.30439	74.2275
32	794.33	4500.07	106.865	4501.34	1.36037	75.8745
33	630.96	4512.3	112.781	4513.71	1.43176	77.7166
34	501.19	4525.74	120.332	4527.34	1.52305	79.4286
35	398.11	4540.07	130.178	4541.94	1.64239	81.2656
36	316.23	4553.94	141.775	4556.14	1.78318	82.6476
37	251.19	4572.54	155.29	4575.18	1.94509	84.4147
38	199.53	4590.74	170.937	4593.92	2.13243	85.9367
39	158.49	4613.65	188.714	4617.51	2.34229	87.7837
40	125.89	4636.45	207.841	4641.1	2.56672	89.4408
41	100	4662.2	229.483	4667.84	2.81794	91.5178
42	79.433	4693.34	253.22	4700.16	3.08829	93.8299
43	63.096	4726.65	279.151	4734.89	3.37991	95.6769
44	50.119	4763.44	305.943	4773.25	3.6749	98.3689
45	39.811	4807.42	337.462	4819.25	4.01535	100.346
46	31.623	4852.27	369.521	4866.32	4.35491	102.653
47	25.119	4900.48	404.008	4917.11	4.71295	105.03
48	19.953	4952.22	445.878	4972.25	5.14481	107.077
49	15.849	5005.21	489.64	5029.1	5.58724	109.754
50	12.589	5062.95	539.206	5091.58	6.0791	112.111
51	10	5122.83	598.6	5157.68	6.66476	114.998
52	7.9433	5189.98	665.824	5232.51	7.31056	117.76
53	6.3096	5260.93	744.835	5313.4	8.05829	120.997
54	5.0119	5339.35	838.321	5404.76	8.92305	124.244
55	3.9811	5421.61	947.28	5503.74	9.91085	127.881
56	3.1623	5512.12	1079.1	5616.76	11.0766	131.014
57	2.5119	5615.21	1233.45	5749.08	12.3889	135.981
58	1.9953	5725.32	1416.84	5898.03	13.8997	139.078
59	1.5849	5847.42	1634.32	6071.52	15.6154	142.35
60	1.2589	5975.9	1894.21	6268.93	17.5873	145.752
61	1	6124.13	2206.5	6509.5	19.8139	149.664
62	0.79433	6290.61	2585.72	6801.31	22.3448	153.071
63	0.63096	6485.04	3042.86	7163.43	25.1365	156.773
64	0.50119	6663.56	3588.96	7568.59	28.3067	161.135
65	0.39811	6906.09	4279.6	8124.6	31.7859	165.822
66	0.31623	7130.59	5098.59	8765.89	35.566	171.364
67	0.25119	7458.71	6095.09	9632.37	39.2549	177.466
68	0.19953	7754.96	7316.86	10661.9	43.335	184.164
69	0.15849	8162.23	8772.97	11982.8	47.0654	192.006
70	0.12589	8585.31	10593.8	13635.8	50.9783	201.623
71	0.1	9067.85	12832.7	15713.2	54.7541	213.22