File: data/Z_s4_1.3.txt
Index	Frequency (Hz)	Z' (Ω)	-Z'' (Ω)	Z (Ω)	-Phase (°)	Time (s)
1	1000000	2535.23	1722.54	3065.05	34.1938	22.1415
2	794330	2788.56	1586.98	3208.52	29.6443	23.7686
3	630960	3073.89	1477.89	3410.71	25.6777	25.4656
4	501190	3353.29	1383.52	3627.49	22.4204	27.1076
5	398110	3640.51	1243.59	3847.05	18.86	28.9147
6	316230	3852.83	1138.77	4017.6	16.466	30.3967
7	251190	3957.05	989.474	4078.88	14.0391	32.0887
8	199530	4126.83	895.139	4222.8	12.2383	33.7057
9	158490	4264.63	797.82	4338.62	10.5963	35.5528
10	125890	4374.8	703.321	4430.97	9.1331	37.2148
11	100000	4463.22	615.046	4505.4	7.84613	38.9668
12	79433	4534.61	535.533	4566.13	6.73537	40.6489
13	63096	4592.69	464.325	4616.1	5.77304	42.3809
14	50119	4642.07	401.593	4659.41	4.94444	44.1679
15	39811	4681.29	346.545	4694.1	4.23375	45.925
16	31623	4709.07	299.116	4718.56	3.6345	47.582
17	25119	4736.29	261.754	4743.51	3.16327	49.234
18	19953	4761.43	229.544	4766.96	2.76004	50.9011
19	15849	4782	202.561	4786.29	2.42554	52.5731
20	12589	4799.49	180.318	4802.87	2.15161	54.3051
21	10000	4813.43	161.788	4816.15	1.92509	55.9722
22	7943.3	4829.99	146.923	4832.22	1.74234	57.7692
23	6309.6	4842.71	134.94	4844.59	1.59611	59.2662
24	5011.9	4858.82	125.192	4860.43	1.47595	61.1333
25	3981.1	4870.56	117.367	4871.97	1.3804	62.6803
26	3162.3	4883.65	111.686	4884.92	1.31009	64.4123
27	2511.9	4893.32	107.266	4894.5	1.25577	66.0343
28	1995.3	4906.53	105.125	4907.65	1.2274	67.8514
29	1584.9	4917.99	103.755	4919.09	1.20859	69.3484
30	1258.9	4929.27	104.757	4930.39	1.21747	71.1904
31	1000	4941.07	106.085	4942.21	1.22995	72.7825
32	794.33	4953.56	109.851	4954.78	1.27039	74.7195
33	630.96	4966.34	114.911	4967.66	1.32547	76.2015
34	501.19	4978.78	121.811	4980.27	1.40152	78.0036
35	398.11	4994.21	131.101	4995.93	1.5037	79.6506
36	316.23	5009.99	141.605	5011.99	1.619	81.4176
37	251.19	5024.61	154.528	5026.98	1.76153	83.0197
38	199.53	5044	169.05	5046.83	1.91955	84.5267
39	158.49	5064.36	186.426	5067.79	2.10818	86.1137
40	125.89	5087.82	206.031	5091.99	2.31893	87.6107
41	100	5115.41	226.673	5120.43	2.53722	89.2278
42	79.433	5141.27	249.832	5147.34	2.78201	90.8648
43	63.096	5175.32	277.213	5182.74	3.06608	92.7118
44	50.119	5212.69	305.903	5221.66	3.35851	94.4689
45	39.811	5250.26	335.277	5260.95	3.6539	96.2659
46	31.623	5295.56	369.268	5308.42	3.98887	98.1879
47	25.119	5346.08	405.005	5361.4	4.33231	100.325
48	19.953	5395.39	446.449	5413.83	4.73025	102.467
49	15.849	5450.42	491.334	5472.53	5.15107	104.914
50	12.589	5510.6	540.775	5537.07	5.6047	107.246
51	10	5569.71	598.865	5601.82	6.13696	109.718
52	7.9433	5637.25	666.379	5676.5	6.74164	112.28
53	6.3096	5710.5	744.88	5758.88	7.43172	115.132
54	5.0119	5786.07	837.358	5846.35	8.23465	117.764
55	3.9811	5871.77	946.013	5947.49	9.15239	120.471
56	3.1623	5964.7	1073.69	6060.57	10.2044	123.413
57	2.5119	6063.72	1227.59	6186.73	11.4448	126.255
58	1.9953	6171.59	1405	6329.5	12.8251	129.343
59	1.5849	6297.11	1619.65	6502.07	14.4242	132.49
60	1.2589	6426.06	1877.48	6694.72	16.2866	135.722
61	1	6576.18	2178.04	6927.48	18.3249	139.419
62	0.79433	6753.09	2548.99	7218.15	20.6793	143.021
63	0.63096	6926.75	2995.71	7546.8	23.3877	147.118
64	0.50119	7114.36	3538.28	7945.66	26.4431	151.21
65	0.39811	7348.1	4172.85	8450.29	29.5914	155.807
66	0.31623	7615.77	4984.77	9102.08	33.206	161.039
67	0.25119	7857.71	5955.07	9859.33	37.1571	167.021
68	0.19953	8239.42	7136.67	10900.5	40.8979	173.568
69	0.15849	8645.68	8580.64	12180.9	44.7837	181.12
70	0.12589	8992.56	10335.8	13700.2	48.9754	189.993
71	0.1	9504.85	12639.2	15814.3	53.0563	200.515