File: data/Z_s4_1.txt
Index	Frequency (Hz)	Z' (Ω)	-Z'' (Ω)	Z (Ω)	-Phase (°)	Time (s)
1	1000000	2112.16	1624.6	2664.69	37.5662	27.0117
2	794330	2326.49	1570.99	2807.23	34.0295	29.1037
3	630960	2711.88	1441.03	3070.97	27.9851	32.6058
4	501190	2994.09	1331.3	3276.73	23.972	36.3728
5	398110	3248.62	1173.14	3453.95	19.8557	38.7899
6	316230	3434.11	1050.17	3591.1	17.0039	40.8969
7	251190	3520.57	896.734	3632.98	14.2901	43.249
8	199530	3663.66	805.44	3751.15	12.399	45.696
9	158490	3777.88	716.938	3845.3	10.7454	47.8131
10	125890	3873.44	633.903	3924.96	9.29429	52.8701
11	100000	3953.49	557.691	3992.64	8.02932	55.6322
12	79433	4018.43	487.823	4047.93	6.92164	58.7043
13	63096	4071.55	424.869	4093.66	5.95729	61.4863
14	50119	4117.01	369.151	4133.53	5.1237	64.1784
15	39811	4152.58	319.612	4164.86	4.40122	67.1004
16	31623	4181.06	276.501	4190.19	3.78357	69.6875
17	25119	4205.95	242.3	4212.92	3.2971	72.9695
18	19953	4229.36	212.977	4234.72	2.8828	76.9116
19	15849	4247.39	188.186	4251.56	2.5369	80.3187
20	12589	4261.72	168.222	4265.04	2.26045	83.3157
21	10000	4278.6	151.805	4281.29	2.032	86.4128
22	7943.3	4292.94	139.129	4295.19	1.85624	88.7698
23	6309.6	4305.49	129.098	4307.43	1.71747	91.4469
24	5011.9	4318.73	121.288	4320.43	1.60868	94.6889
25	3981.1	4331.14	115.704	4332.69	1.53026	97.831
26	3162.3	4343.79	112.225	4345.24	1.47995	100.218
27	2511.9	4354.7	110.528	4356.1	1.45393	102.48
28	1995.3	4367.1	110.41	4368.5	1.44826	105.737
29	1584.9	4379.28	111.839	4380.71	1.46291	107.819
30	1258.9	4390.49	115.768	4392.01	1.51042	110.161
31	1000	4403.72	121.084	4405.38	1.575	113.163
32	794.33	4417.25	128.735	4419.12	1.66934	115.365
33	630.96	4433.83	137.904	4435.97	1.78148	116.837
34	501.19	4450.49	149.775	4453.01	1.92749	119.059
35	398.11	4466.24	163.572	4469.24	2.09746	121.376
36	316.23	4487.4	180.316	4491.02	2.30106	123.908
37	251.19	4508.68	199.194	4513.08	2.52969	126.321
38	199.53	4534.46	220.399	4539.81	2.78268	128.393
39	158.49	4561.46	244.499	4568.01	3.06818	131.085
40	125.89	4591.96	270.288	4599.91	3.3686	134.152
41	100	4627.84	298.667	4637.46	3.69258	136.939
42	79.433	4670.56	329.325	4682.15	4.0333	139.721
43	63.096	4718.17	361.449	4732	4.38076	143.358
44	50.119	4763.89	397.798	4780.47	4.77328	147.21
45	39.811	4822.04	432.246	4841.37	5.12228	150.307
46	31.623	4878.65	470.001	4901.23	5.5028	154.459
47	25.119	4940	511.549	4966.41	5.91205	157.536
48	19.953	5006.97	558.581	5038.03	6.36564	161.443
49	15.849	5073.93	609.781	5110.44	6.8529	165.425
50	12.589	5145.98	667.688	5189.11	7.3928	168.702
51	10	5223.67	736.032	5275.27	8.02035	171.899
52	7.9433	5302.57	814.965	5364.83	8.73756	174.916
53	6.3096	5390.89	908.358	5466.88	9.56442	178.373
54	5.0119	5485.43	1019.79	5579.42	10.5316	181.386
55	3.9811	5586.24	1150.41	5703.47	11.6365	185.083
56	3.1623	5697.22	1305.94	5844.98	12.9106	189.255
57	2.5119	5820.49	1492.28	6008.74	14.38	193.362
58	1.9953	5953.97	1710.06	6194.68	16.0248	196.774
59	1.5849	6101.1	1972.57	6412.05	17.9168	199.931
60	1.2589	6264.92	2283.49	6668.1	20.0262	203.473
61	1	6446.48	2666.2	6976.08	22.4695	207.815
62	0.79433	6643.11	3121.29	7339.84	25.1666	212.162
63	0.63096	6870.65	3652.94	7781.38	27.9983	216.929
64	0.50119	7126.42	4312.72	8329.79	31.1812	222.121
65	0.39811	7400.33	5120.78	8999.29	34.6819	228.048
66	0.31623	7712.9	6077.1	9819.37	38.2351	234.696
67	0.25119	8067.57	7268.86	10859.2	42.0188	242.723
68	0.19953	8457.71	8739.11	12161.6	45.9375	250.265
69	0.15849	8977.71	10476.9	13797.2	49.4065	259.822
70	0.12589	9604.45	12697.4	15920.7	52.8957	268.944
71	0.1	10162.5	15351.8	18410.7	56.4966	282.406