File: data/Z_s4_1.4.txt
Index	Frequency (Hz)	Z' (Ω)	-Z'' (Ω)	Z (Ω)	-Phase (°)	Time (s)
1	1000000	2503.95	1643.8	2995.31	33.2842	26.9426
2	794330	2719.46	1491.18	3101.47	28.7375	28.5297
3	630960	3001.8	1397.02	3310.96	24.957	30.0067
4	501190	3252.22	1306.23	3504.73	21.8825	31.6837
5	398110	3519.67	1163.78	3707.09	18.2965	33.4057
6	316230	3717.77	1062.09	3866.5	15.9436	34.9728
7	251190	3811.46	912.5	3919.17	13.4637	36.3498
8	199530	3968.81	822.844	4053.21	11.713	37.8968
9	158490	4089.61	730.323	4154.31	10.1252	39.3089
10	125890	4191.6	642.206	4240.52	8.71068	40.7409
11	100000	4271.23	560.577	4307.86	7.47704	42.1579
12	79433	4336.04	487.071	4363.31	6.40922	43.5149
13	63096	4388.09	421.808	4408.31	5.49073	44.977
14	50119	4429.57	364.486	4444.54	4.70398	46.384
15	39811	4465.75	314.515	4476.81	4.0286	49.021
16	31623	4493.72	271.405	4501.91	3.45627	50.5281
17	25119	4514.01	237.353	4520.25	3.00992	52.0501
18	19953	4533.3	208.385	4538.09	2.63189	53.5171
19	15849	4553.49	184.245	4557.22	2.31706	55.7192
20	12589	4570.2	164.273	4573.15	2.05858	57.6562
21	10000	4583.96	147.473	4586.33	1.84266	59.3032
22	7943.3	4599.94	134.438	4601.91	1.67405	60.6852
23	6309.6	4610.02	123.182	4611.66	1.53061	62.2823
24	5011.9	4622.42	114.676	4623.84	1.42114	63.7593
25	3981.1	4633.48	107.819	4634.73	1.333	65.1763
26	3162.3	4645.44	102.227	4646.57	1.26064	66.5584
27	2511.9	4655.69	98.4117	4656.73	1.21093	68.0754
28	1995.3	4664.82	96.0338	4665.81	1.17937	69.4224
29	1584.9	4676.41	95.1695	4677.38	1.16586	70.7594
30	1258.9	4686.2	95.6047	4687.18	1.16875	72.2265
31	1000	4696.52	97.0748	4697.53	1.18411	73.5735
32	794.33	4707.91	100.067	4708.97	1.21764	75.2205
33	630.96	4720.51	105.152	4721.68	1.27608	76.5526
34	501.19	4733.79	110.851	4735.09	1.34145	78.2846
35	398.11	4746.1	119.039	4747.59	1.43676	80.1566
36	316.23	4760.89	128.403	4762.62	1.54492	81.7336
37	251.19	4772.72	139.45	4774.76	1.6736	83.1707
38	199.53	4788.42	152.529	4790.85	1.82447	84.6477
39	158.49	4809.32	168.14	4812.26	2.00232	86.4547
40	125.89	4827.32	184.56	4830.85	2.18949	88.3918
41	100	4850.12	204.332	4854.42	2.4124	90.1738
42	79.433	4874.62	225.308	4879.83	2.64636	92.0758
43	63.096	4905.23	249.299	4911.56	2.90944	94.0229
44	50.119	4938.97	273.193	4946.52	3.16602	96.2599
45	39.811	4974.2	301.375	4983.32	3.46718	98.0769
46	31.623	5012.08	331.576	5023.03	3.78491	100.049
47	25.119	5055.26	364.756	5068.4	4.12695	102.216
48	19.953	5101.64	402.461	5117.49	4.51064	104.518
49	15.849	5148.7	443.253	5167.74	4.92048	107.005
50	12.589	5200.36	490.029	5223.4	5.38307	110.127
51	10	5255.9	543.444	5283.92	5.90323	112.669
52	7.9433	5316.77	604.565	5351.03	6.48719	115.416
53	6.3096	5380.55	677.24	5423	7.17399	118.133
54	5.0119	5452.46	762.644	5505.54	7.96239	121.145
55	3.9811	5524.91	863.388	5591.96	8.88188	123.982
56	3.1623	5609.66	980.649	5694.73	9.91593	126.764
57	2.5119	5699.67	1119.17	5808.51	11.1091	129.832
58	1.9953	5797.27	1284.22	5937.81	12.4906	133.129
59	1.5849	5909.31	1483.75	6092.73	14.0948	136.446
60	1.2589	6032.78	1718.52	6272.77	15.9003	139.938
61	1	6164.33	2005.52	6482.37	18.0219	143.84
62	0.79433	6310.69	2345.52	6732.48	20.3888	147.537
63	0.63096	6476.28	2745.8	7034.32	22.9759	151.514
64	0.50119	6649.75	3234.63	7394.73	25.9397	155.686
65	0.39811	6846.7	3868.11	7863.81	29.4647	160.468
66	0.31623	7072.2	4594.03	8433.33	33.0073	165.89
67	0.25119	7344.11	5550.09	9205.4	37.0791	171.717
68	0.19953	7611.08	6618.06	10086	41.0079	178.339
69	0.15849	7964.84	7949.91	11253.4	44.9463	186.147
70	0.12589	8334.38	9622.12	12729.8	49.1019	195.314
71	0.1	8852.1	11737.4	14701.2	52.9772	205.886