File: data/Z_s5_1.5.txt
Index	Frequency (Hz)	Z' (Ω)	-Z'' (Ω)	Z (Ω)	-Phase (°)	Time (s)
1	1000000	3391.16	2575.34	4258.21	37.214	22.0255
2	794330	3757.5	2352.41	4433.13	32.0489	23.7476
3	630960	4246.64	2139.11	4754.97	26.7353	25.7846
4	501190	4655.42	2001.77	5067.54	23.2671	27.7016
5	398110	5121.1	1786.04	5423.62	19.2267	29.7737
6	316230	5427.98	1619.05	5664.3	16.6087	31.5757
7	251190	5578.82	1389.33	5749.22	13.9843	33.5327
8	199530	5809.84	1244.4	5941.61	12.0895	35.4748
9	158490	5990.23	1098.04	6090.04	10.3873	37.2918
10	125890	6140.57	959.939	6215.15	8.88498	39.0739
11	100000	6258.5	832.926	6313.68	7.58078	40.8659
12	79433	6352.54	718.209	6393.01	6.45038	43.3079
13	63096	6426.05	616.927	6455.6	5.48382	45.11
14	50119	6480.66	527.96	6502.13	4.65743	46.987
15	39811	6530.76	450.674	6546.29	3.9476	48.639
16	31623	6569.58	384.716	6580.83	3.35143	50.6761
17	25119	6595.9	332.979	6604.3	2.88999	52.4081
18	19953	6622.63	288.967	6628.93	2.49842	54.2701
19	15849	6646.02	252.932	6650.84	2.17949	55.8872
20	12589	6667.99	222.723	6671.71	1.91307	57.9292
21	10000	6683.99	197.945	6686.92	1.6963	59.6162
22	7943.3	6700.18	178.592	6702.55	1.52685	61.5083
23	6309.6	6712.38	162.821	6714.35	1.38954	63.1803
24	5011.9	6731.2	150.418	6732.89	1.28014	65.0123
25	3981.1	6742	140.491	6743.47	1.19377	66.6144
26	3162.3	6758.25	132.674	6759.56	1.12465	68.4764
27	2511.9	6770.67	127.433	6771.87	1.07826	70.3284
28	1995.3	6782.63	124.208	6783.77	1.04912	72.1205
29	1584.9	6797.54	123.129	6798.66	1.03773	73.7125
30	1258.9	6810.24	123.967	6811.37	1.04285	75.4595
31	1000	6822.84	126.807	6824.02	1.06476	77.1116
32	794.33	6835.18	131.894	6836.45	1.10546	78.9886
33	630.96	6847.2	139.449	6848.62	1.16671	80.6756
34	501.19	6866.5	149.846	6868.13	1.25015	82.2577
35	398.11	6878.09	162.759	6880.02	1.35556	84.1247
36	316.23	6899.14	177.85	6901.43	1.47668	85.6867
37	251.19	6920.46	196.82	6923.26	1.62907	87.6337
38	199.53	6942.33	217.559	6945.74	1.79495	89.1958
39	158.49	6967.52	242.518	6971.74	1.99348	91.3978
40	125.89	6998.09	267.86	7003.22	2.19199	93.3049
41	100	7029.29	299.592	7035.67	2.4405	95.1969
42	79.433	7072.55	329.954	7080.24	2.67107	96.9139
43	63.096	7123.09	364.389	7132.41	2.92847	98.961
44	50.119	7160.9	401.154	7172.13	3.20636	101.228
45	39.811	7223.04	435.55	7236.16	3.45077	103.08
46	31.623	7272.87	477.775	7288.55	3.75852	105.527
47	25.119	7334.93	515.67	7353.04	4.02147	107.544
48	19.953	7402.95	566.676	7424.61	4.3773	110.076
49	15.849	7474.81	622.492	7500.69	4.76052	112.538
50	12.589	7548.94	682.38	7579.72	5.16517	114.96
51	10	7624.86	751.227	7661.78	5.62681	117.782
52	7.9433	7709.78	831.405	7754.48	6.15486	120.829
53	6.3096	7797.21	923.793	7851.75	6.75675	123.661
54	5.0119	7891.26	1033.75	7958.68	7.46318	126.233
55	3.9811	7989.71	1163.97	8074.05	8.28876	129.321
56	3.1623	8089.24	1318.98	8196.07	9.26081	132.568
57	2.5119	8200.17	1505.51	8337.22	10.4034	135.755
58	1.9953	8315.81	1732.73	8494.42	11.7701	138.967
59	1.5849	8440.76	2013.71	8677.64	13.4182	142.184
60	1.2589	8584.72	2346.08	8899.52	15.2849	145.971
61	1	8716.89	2773.52	9147.49	17.6499	149.663
62	0.79433	8904.76	3286.13	9491.75	20.2556	153.6
63	0.63096	9087.44	3895.28	9887.1	23.2021	157.357
64	0.50119	9292.44	4689.62	10408.7	26.7788	161.629
65	0.39811	9499.98	5643.99	11050.1	30.7148	166.231
66	0.31623	9766.49	6821.91	11913.1	34.9344	171.413
67	0.25119	10103.2	8307.91	13080.4	39.4305	177.41
68	0.19953	10517.3	10006.1	14516.8	43.5731	184.143
69	0.15849	11041.3	12160.8	16425.4	47.7622	192.21
70	0.12589	11578.3	14782.1	18776.8	51.9297	201.247
71	0.1	12188.4	18149.2	21862.1	56.1161	211.764