File: data/Z_s5_1.4.txt
Index	Frequency (Hz)	Z' (Ω)	-Z'' (Ω)	Z (Ω)	-Phase (°)	Time (s)
1	1000000	3462.24	2476.39	4256.71	35.5746	27.6796
2	794330	3811.74	2200.23	4401.18	29.9946	29.4567
3	630960	4247.57	2031.06	4708.19	25.5557	31.1187
4	501190	4644.06	1879.59	5010.01	22.0346	33.0407
5	398110	5077.97	1686.57	5350.73	18.3731	34.7178
6	316230	5366.98	1533.92	5581.88	15.9503	36.4348
7	251190	5506.38	1323.73	5663.26	13.5174	37.9818
8	199530	5729.4	1189.58	5851.59	11.7295	39.8239
9	158490	5909.84	1053.01	6002.92	10.1029	41.4309
10	125890	6055.23	922.356	6125.08	8.66093	43.3829
11	100000	6166.81	800.972	6218.61	7.40039	45.805
12	79433	6260.33	692.442	6298.51	6.31171	47.967
13	63096	6336.18	596.064	6364.16	5.37418	50.0441
14	50119	6392.31	510.801	6412.69	4.56872	52.2711
15	39811	6440.55	436.471	6455.32	3.87696	54.0181
16	31623	6475.45	372.841	6486.17	3.29532	55.5352
17	25119	6505.75	323.891	6513.8	2.85014	57.4072
18	19953	6533.03	281.742	6539.1	2.4694	59.0992
19	15849	6554.44	246.816	6559.08	2.15653	60.9363
20	12589	6577.03	217.765	6580.64	1.89637	62.8683
21	10000	6593.67	194.537	6596.54	1.68994	65.6053
22	7943.3	6614.45	175.817	6616.78	1.52261	67.9224
23	6309.6	6630.28	160.818	6632.23	1.38944	70.3444
24	5011.9	6644.01	148.745	6645.68	1.28251	72.8965
25	3981.1	6659.81	139.427	6661.27	1.19935	74.9935
26	3162.3	6673.73	132.369	6675.05	1.13627	77.0756
27	2511.9	6684.7	127.124	6685.91	1.08947	79.2826
28	1995.3	6702.19	124.487	6703.35	1.06409	80.9896
29	1584.9	6713.76	124.295	6714.91	1.06062	83.4117
30	1258.9	6730.05	124.355	6731.19	1.05857	85.3237
31	1000	6743.37	128.786	6744.6	1.09411	87.5557
32	794.33	6755.86	134.417	6757.2	1.13983	89.5778
33	630.96	6772.07	142.847	6773.58	1.20839	91.4898
34	501.19	6787.93	153.521	6789.67	1.29563	94.0119
35	398.11	6805.62	166.745	6807.66	1.40353	96.1139
36	316.23	6826.76	183.606	6829.23	1.5406	98.636
37	251.19	6846.45	202.505	6849.44	1.69421	101.023
38	199.53	6871.88	223.98	6875.53	1.86682	102.875
39	158.49	6898.68	249.748	6903.2	2.07333	104.502
40	125.89	6931.12	277.19	6936.66	2.29016	106.054
41	100	6969.44	306.635	6976.18	2.51922	107.381
42	79.433	7009.65	339.285	7017.85	2.7711	108.843
43	63.096	7054.1	372.959	7063.96	3.02648	110.36
44	50.119	7105.27	405.403	7116.83	3.26557	112.007
45	39.811	7164.67	446.596	7178.58	3.56681	113.569
46	31.623	7221.86	489.679	7238.44	3.87901	115.241
47	25.119	7287.86	530.147	7307.12	4.16059	116.843
48	19.953	7355.71	581.122	7378.63	4.51715	118.72
49	15.849	7425.89	637.905	7453.23	4.90982	120.832
50	12.589	7505.63	697.842	7538.01	5.31185	122.909
51	10	7585.05	768.479	7623.88	5.78518	125.176
52	7.9433	7674.54	851.653	7721.65	6.33227	127.678
53	6.3096	7760.26	944.099	7817.48	6.93641	130.056
54	5.0119	7853.76	1058.05	7924.71	7.67262	132.508
55	3.9811	7959.09	1191.25	8047.75	8.51237	135.1
56	3.1623	8064.24	1353.65	8177.06	9.52873	137.572
57	2.5119	8181.08	1548.64	8326.36	10.719	140.244
58	1.9953	8294.03	1783.15	8483.55	12.1335	142.916
59	1.5849	8430.72	2072.81	8681.8	13.813	145.678
60	1.2589	8566.05	2423.8	8902.36	15.7991	148.545
61	1	8717.4	2860.13	9174.6	18.1644	151.817
62	0.79433	8913.07	3391.04	9536.35	20.8297	155.119
63	0.63096	9084.17	4025.16	9936	23.8979	158.666
64	0.50119	9298.81	4845.2	10485.4	27.522	162.573
65	0.39811	9530.86	5824.04	11169.5	31.4279	166.825
66	0.31623	9858.31	7081.12	12137.9	35.6893	171.587
67	0.25119	10194	8491.46	13267.3	39.7939	177.124
68	0.19953	10668.8	10293	14824.6	43.973	183.452
69	0.15849	11135.9	12495.6	16737.7	48.2929	190.729
70	0.12589	11664	15298.9	19238.1	52.6779	199.301
71	0.1	12524.7	18570.8	22399.6	56.003	209.503