File: data/Z_s5_1.2.txt
Index	Frequency (Hz)	Z' (Ω)	-Z'' (Ω)	Z (Ω)	-Phase (°)	Time (s)
1	1000000	3333.5	2231.36	4011.38	33.7974	28.7957
2	794330	3645.62	1984.17	4150.59	28.5578	30.5227
3	630960	4011.44	1831.24	4409.66	24.5369	32.3647
4	501190	4356.92	1702.37	4677.69	21.3419	34.1768
5	398110	4741.04	1513.81	4976.86	17.7082	35.9538
6	316230	4994.74	1377.87	5181.31	15.4223	38.0208
7	251190	5117.43	1181.84	5252.13	13.0042	39.9779
8	199530	5319.29	1064.13	5424.69	11.3128	41.4149
9	158490	5481.27	944.512	5562.05	9.77699	42.9269
10	125890	5612.22	829.133	5673.13	8.40393	44.3389
11	100000	5717.23	722.038	5762.64	7.19788	45.911
12	79433	5800.14	624.857	5833.7	6.14884	47.348
13	63096	5865.58	538.516	5890.25	5.24559	48.8
14	50119	5920.85	462.562	5938.89	4.46711	50.232
15	39811	5964.76	395.705	5977.87	3.79547	51.6741
16	31623	5997.2	338.489	6006.75	3.23041	53.1561
17	25119	6022.91	293.849	6030.07	2.79316	54.5731
18	19953	6046.85	256.328	6052.28	2.42734	56.0852
19	15849	6065.99	224.929	6070.16	2.12358	57.4772
20	12589	6086.35	199.15	6089.61	1.87409	59.2942
21	10000	6101.57	178.19	6104.17	1.67278	60.7362
22	7943.3	6116.83	161.496	6118.96	1.51237	62.1583
23	6309.6	6132.57	148.771	6134.38	1.38967	63.7253
24	5011.9	6144.94	138.618	6146.51	1.29226	65.3273
25	3981.1	6156.97	130.726	6158.36	1.21633	67.6594
26	3162.3	6172.35	125.414	6173.63	1.16401	69.2264
27	2511.9	6184.58	121.742	6185.78	1.12771	70.7484
28	1995.3	6198.4	120.159	6199.57	1.11057	72.1055
29	1584.9	6211.29	120.489	6212.46	1.11131	73.4925
30	1258.9	6222.16	123.665	6223.39	1.1386	74.8895
31	1000	6236.83	127.783	6238.14	1.17373	76.9115
32	794.33	6252.27	134.519	6253.72	1.23254	78.4136
33	630.96	6266.37	144.092	6268.02	1.31725	79.9606
34	501.19	6277.89	155.661	6279.82	1.42037	81.4026
35	398.11	6297.44	169.794	6299.73	1.54446	82.9697
36	316.23	6320.02	186.494	6322.77	1.69021	84.4967
37	251.19	6341.82	207.191	6345.21	1.87122	86.3887
38	199.53	6364.81	229.462	6368.95	2.06471	88.0007
39	158.49	6393.53	254.868	6398.6	2.2828	89.9228
40	125.89	6429	281.914	6435.18	2.51083	91.7248
41	100	6465.97	310.739	6473.43	2.75139	93.6069
42	79.433	6508.62	343.272	6517.67	3.01905	95.3939
43	63.096	6558.02	373.703	6568.66	3.26142	97.4259
44	50.119	6604.74	407.764	6617.31	3.53285	99.318
45	39.811	6665.12	447.782	6680.15	3.84352	101.19
46	31.623	6720.77	487.201	6738.4	4.14622	102.957
47	25.119	6784.83	529.667	6805.48	4.46382	104.979
48	19.953	6849.14	580.478	6873.69	4.84435	107.016
49	15.849	6923.38	635.306	6952.47	5.24292	109.858
50	12.589	6999.27	698.535	7034.04	5.69932	112.31
51	10	7075.87	768.015	7117.43	6.19464	114.822
52	7.9433	7161.22	851.557	7211.67	6.78133	117.319
53	6.3096	7252.09	948.017	7313.79	7.44766	120.221
54	5.0119	7338.5	1066.09	7415.53	8.2657	123.088
55	3.9811	7438.54	1205.98	7535.66	9.20902	125.825
56	3.1623	7542.58	1372.3	7666.41	10.3116	128.542
57	2.5119	7654.41	1576.57	7815.09	11.6384	131.505
58	1.9953	7770.06	1825.41	7981.61	13.2207	134.732
59	1.5849	7898.58	2127.26	8180.02	15.0733	137.694
60	1.2589	8034.93	2494.68	8413.3	17.2485	140.976
61	1	8197.61	2954.28	8713.7	19.8183	144.733
62	0.79433	8386.03	3507.05	9089.83	22.6947	148.47
63	0.63096	8589.13	4191.93	9557.48	26.0147	152.567
64	0.50119	8807.6	5033.91	10144.7	29.7498	156.744
65	0.39811	9068.69	6032.41	10891.8	33.6315	161.336
66	0.31623	9378.28	7290.76	11878.9	37.8618	166.433
67	0.25119	9736.41	8859.91	13164.2	42.3015	172.49
68	0.19953	10249.8	10701.4	14818.2	46.2346	179.257
69	0.15849	10801.4	13002.1	16903.4	50.282	187.17
70	0.12589	11431.4	15765.4	19473.7	54.0542	196.202
71	0.1	12145.4	19296.5	22800.6	57.8134	206.709