File: data/Z_s5_1.3.txt
Index	Frequency (Hz)	Z' (Ω)	-Z'' (Ω)	Z (Ω)	-Phase (°)	Time (s)
1	1000000	3318.13	2379.29	4083.01	35.6427	36.1898
2	794330	3645.47	2137.71	4226.02	30.3874	37.8668
3	630960	4058.82	1960.48	4507.5	25.7813	39.6338
4	501190	4436.57	1816.16	4793.91	22.2623	41.3409
5	398110	4856.77	1634.31	5124.37	18.5982	43.0579
6	316230	5136.92	1487.87	5348.06	16.1533	44.6099
7	251190	5270.76	1279.53	5423.84	13.6451	46.317
8	199530	5486.64	1150.02	5605.87	11.8381	47.889
9	158490	5658.92	1018.17	5749.79	10.1997	49.631
10	125890	5800.83	892.167	5869.04	8.74357	51.2181
11	100000	5909.94	774.617	5960.49	7.4672	53.1001
12	79433	5997.7	669.833	6034.99	6.37248	54.7321
13	63096	6069.82	576.617	6097.14	5.42667	56.4442
14	50119	6123.43	493.996	6143.32	4.61225	58.1462
15	39811	6172.26	422.211	6186.68	3.9132	59.9682
16	31623	6203.83	361.055	6214.33	3.33078	61.7003
17	25119	6231.88	313.123	6239.74	2.87643	63.4273
18	19953	6259.34	272.196	6265.26	2.49001	65.1443
19	15849	6280.51	238.362	6285.03	2.17348	66.9264
20	12589	6299.9	210.918	6303.43	1.91752	68.5384
21	10000	6318.05	188.678	6320.87	1.71053	70.3054
22	7943.3	6334.2	170.48	6336.5	1.5417	72.0474
23	6309.6	6349.18	156.145	6351.1	1.40879	73.6545
24	5011.9	6365.29	144.923	6366.94	1.30427	75.4765
25	3981.1	6375.41	136.361	6376.87	1.22529	77.1035
26	3162.3	6389.38	130.003	6390.71	1.16562	78.7606
27	2511.9	6405.31	125.953	6406.54	1.12651	80.4526
28	1995.3	6415.77	123.654	6416.96	1.10415	82.3046
29	1584.9	6428.96	124.041	6430.16	1.10534	83.7867
30	1258.9	6442.52	125.931	6443.75	1.11981	85.5237
31	1000	6455.12	129.628	6456.42	1.15042	87.1957
32	794.33	6470.78	136.082	6472.21	1.20476	89.0928
33	630.96	6486.57	144.813	6488.18	1.27892	90.6748
34	501.19	6503.54	156.5	6505.42	1.37849	92.6318
35	398.11	6521.1	170.461	6523.33	1.49737	94.1689
36	316.23	6539.76	187.518	6542.45	1.64242	95.9309
37	251.19	6561.97	207.546	6565.25	1.81158	97.6829
38	199.53	6587.91	230.406	6591.94	2.00305	99.49
39	158.49	6615.19	255.339	6620.12	2.21046	101.072
40	125.89	6647.35	283.132	6653.38	2.43893	102.949
41	100	6685.42	313.6	6692.77	2.68566	104.591
42	79.433	6726.09	345.537	6734.96	2.94085	106.548
43	63.096	6776.95	381.716	6787.7	3.22381	108.7
44	50.119	6828.87	417.513	6841.62	3.49867	110.937
45	39.811	6883.7	452.47	6898.56	3.76068	112.819
46	31.623	6943.41	491.798	6960.8	4.05146	114.846
47	25.119	7008	536.007	7028.47	4.37375	116.978
48	19.953	7076.07	588.949	7100.54	4.75782	119.13
49	15.849	7150.59	645.312	7179.65	5.15674	121.387
50	12.589	7220.87	707.452	7255.45	5.59559	123.674
51	10	7301.75	777.539	7343.03	6.07833	126.256
52	7.9433	7388.73	863.201	7438.98	6.66347	129.089
53	6.3096	7475.58	960.476	7537.03	7.32136	131.741
54	5.0119	7568.75	1077.23	7645.02	8.10029	134.468
55	3.9811	7672.2	1220.87	7768.73	9.04158	137.29
56	3.1623	7777.46	1386.48	7900.08	10.1079	140.212
57	2.5119	7892.15	1587.61	8050.25	11.374	143.169
58	1.9953	8004.17	1838.72	8212.66	12.9376	146.436
59	1.5849	8145.73	2139.05	8421.91	14.7135	149.698
60	1.2589	8283.03	2502.47	8652.8	16.8106	153.085
61	1	8441.91	2963.33	8946.91	19.3424	156.867
62	0.79433	8640.66	3523.65	9331.52	22.1856	160.394
63	0.63096	8827.35	4196.34	9774.01	25.4254	164.456
64	0.50119	9038.72	5030.49	10344.3	29.0981	168.543
65	0.39811	9333.46	6038.18	11116.3	32.9004	173.11
66	0.31623	9660.34	7328.87	12125.8	37.186	178.467
67	0.25119	10005.3	8814.45	13334.2	41.3794	184.33
68	0.19953	10497.5	10697.7	14987.9	45.5412	190.702
69	0.15849	11045.9	12983.7	17046.6	49.6104	198.319
70	0.12589	11641.6	15753.3	19588.1	53.536	207.151
71	0.1	12399.8	19301.6	22941.4	57.2824	217.688