File: data/Z_s5_1.txt
Index	Frequency (Hz)	Z' (Ω)	-Z'' (Ω)	Z (Ω)	-Phase (°)	Time (s)
1	1000000	2706.47	2346.61	3582.11	40.9266	84.6277
2	794330	3351.46	2114.01	3962.49	32.2427	86.5247
3	630960	3639.17	2053.82	4178.73	29.4389	89.0318
4	501190	4066.76	1886.29	4482.93	24.8833	91.6038
5	398110	4473.5	1658.39	4771	20.3405	94.4109
6	316230	4736.72	1471.97	4960.16	17.263	96.6829
7	251190	4855.73	1248.08	5013.56	14.4148	99.335
8	199530	5048.66	1111.32	5169.53	12.414	101.837
9	158490	5203.62	980.03	5295.1	10.6659	103.834
10	125890	5331.09	858.41	5399.76	9.14723	106.181
11	100000	5434.43	747.04	5485.53	7.82707	108.468
12	79433	5519.6	646.591	5557.35	6.68143	111.12
13	63096	5588.73	557.261	5616.45	5.69423	113.602
14	50119	5643.46	478.091	5663.67	4.8423	115.739
15	39811	5689.42	408.81	5704.09	4.10989	117.796
16	31623	5722.58	349.493	5733.24	3.49486	120.518
17	25119	5751.2	303.04	5759.18	3.01622	122.535
18	19953	5779.62	263.976	5785.65	2.61509	124.882
19	15849	5802.11	231.46	5806.73	2.28446	127.289
20	12589	5820.73	205.035	5824.34	2.01741	129.087
21	10000	5839.6	183.438	5842.48	1.79922	130.929
22	7943.3	5856.94	166.832	5859.31	1.6316	133.531
23	6309.6	5872.14	153.861	5874.16	1.50091	136.028
24	5011.9	5891.09	144.151	5892.86	1.40171	138.14
25	3981.1	5903.56	137.068	5905.15	1.33005	140.352
26	3162.3	5918.21	132.726	5919.7	1.28474	142.674
27	2511.9	5936.56	130.74	5938	1.26161	145.131
28	1995.3	5951.62	130.502	5953.05	1.25613	148.303
29	1584.9	5963.6	132.956	5965.08	1.27718	150.56
30	1258.9	5982.73	137.804	5984.31	1.3195	152.402
31	1000	5998.82	143.724	6000.54	1.37247	155.229
32	794.33	6014.67	153.224	6016.62	1.45929	156.886
33	630.96	6033.18	164.555	6035.42	1.56236	159.268
34	501.19	6054.19	178.678	6056.82	1.69048	161.57
35	398.11	6078.12	196.611	6081.3	1.85272	163.877
36	316.23	6103.35	216.718	6107.2	2.03361	166.619
37	251.19	6129.17	239.394	6133.84	2.23673	168.536
38	199.53	6165.22	265.552	6170.93	2.46636	171.188
39	158.49	6204.38	293.476	6211.32	2.70816	174.35
40	125.89	6239.87	322.799	6248.21	2.96137	177.152
41	100	6288.34	355.157	6298.36	3.23256	180.459
42	79.433	6336.35	387.919	6348.21	3.50334	182.927
43	63.096	6398.25	425.108	6412.36	3.80121	185.509
44	50.119	6449.2	462.097	6465.74	4.09834	188.816
45	39.811	6517.75	501.483	6537.02	4.39973	190.868
46	31.623	6583.92	543.011	6606.27	4.71482	193.33
47	25.119	6655.13	592.167	6681.42	5.08473	195.997
48	19.953	6732.09	648.419	6763.25	5.50162	198.774
49	15.849	6813.18	709.232	6849.99	5.94292	201.476
50	12.589	6897.04	776.558	6940.62	6.42404	204.403
51	10	6986.51	859.566	7039.19	7.01398	207.77
52	7.9433	7077.42	951.345	7141.07	7.65579	211.292
53	6.3096	7175.36	1063.79	7253.79	8.43304	214.869
54	5.0119	7279.12	1196.59	7376.81	9.33518	218.806
55	3.9811	7386.19	1358.03	7510	10.4181	222.628
56	3.1623	7500.9	1554.05	7660.19	11.705	226.46
57	2.5119	7626.45	1789.45	7833.58	13.2049	230.192
58	1.9953	7763.68	2079.7	8037.41	14.9961	233.719
59	1.5849	7916.35	2438.61	8283.44	17.1213	237.152
60	1.2589	8086.74	2869.06	8580.61	19.534	241.279
61	1	8278.06	3396.45	8947.74	22.3081	246.326
62	0.79433	8488.66	4034.07	9398.46	25.4185	250.573
63	0.63096	8749.47	4826.52	9992.43	28.8827	254.845
64	0.50119	9016.95	5779.51	10710.2	32.6582	259.797
65	0.39811	9342.57	6937.01	11636.4	36.5945	265.034
66	0.31623	9763.35	8345.17	12843.9	40.522	272.166
67	0.25119	10246.1	10111.5	14395.3	44.6211	278.728
68	0.19953	10766.2	12242.8	16303.3	48.6719	285.555
69	0.15849	11457.1	14765	18688.8	52.1899	293.858
70	0.12589	12325.5	17863.6	21703.2	55.3952	303.705
71	0.1	13167.7	21762.7	25436.2	58.8236	314.727