File: data/Z_s6_1.2.txt
Index	Frequency (Hz)	Z' (Ω)	-Z'' (Ω)	Z (Ω)	-Phase (°)	Time (s)
1	1000000	3797.39	3081.81	4890.57	39.0614	15.6374
2	794330	4306.22	2739.45	5103.74	32.463	17.4844
3	630960	4853.66	2556.38	5485.72	27.7754	19.7365
4	501190	5339.48	2396.89	5852.79	24.1753	21.3885
5	398110	5949.65	2183.02	6337.5	20.1489	24.2656
6	316230	6324.95	2001.06	6633.95	17.5561	26.1326
7	251190	6527.41	1736.02	6754.32	14.8935	28.4096
8	199530	6822.67	1569.56	7000.88	12.9556	30.6217
9	158490	7060.46	1397.67	7197.47	11.1974	32.7037
10	125890	7254.46	1231.62	7358.27	9.63546	34.9808
11	100000	7412.3	1075.5	7489.92	8.25582	38.1028
12	79433	7540.78	935.309	7598.56	7.07049	40.1499
13	63096	7638.38	807.866	7680.98	6.03739	41.7269
14	50119	7722.78	694.863	7753.98	5.14139	44.4689
15	39811	7792	594.589	7814.65	4.36365	46.271
16	31623	7840.93	508.504	7857.41	3.71058	47.948
17	25119	7883.28	442.427	7895.69	3.2122	49.675
18	19953	7920.89	384.713	7930.23	2.78064	51.6421
19	15849	7951.18	335.501	7958.25	2.41617	53.0941
20	12589	7980	295.431	7985.47	2.1202	54.7561
21	10000	8006.09	262.041	8010.38	1.87463	56.6032
22	7943.3	8030.64	234.907	8034.07	1.6755	58.4852
23	6309.6	8053.2	212.966	8056.01	1.51483	60.5872
24	5011.9	8068.26	194.621	8070.61	1.38181	62.4593
25	3981.1	8088.7	179.678	8090.7	1.27253	64.2063
26	3162.3	8108.19	167.919	8109.93	1.18641	65.7883
27	2511.9	8126.24	159.002	8127.8	1.12093	67.6154
28	1995.3	8142.16	152.669	8143.59	1.07419	69.5524
29	1584.9	8158.12	147.148	8159.45	1.03333	71.3794
30	1258.9	8176.71	144.487	8177.99	1.01235	73.4265
31	1000	8191.82	144.58	8193.1	1.01113	75.3235
32	794.33	8209.69	146.353	8211	1.0213	77.4706
33	630.96	8224.33	150.842	8225.71	1.05074	79.6526
34	501.19	8245.95	157.494	8247.46	1.09419	81.3846
35	398.11	8257.99	165.758	8259.65	1.14991	83.3567
36	316.23	8279.78	177.668	8281.68	1.22926	85.5087
37	251.19	8299.69	192.873	8301.93	1.33123	88.2108
38	199.53	8319.72	209.305	8322.35	1.44113	90.0878
39	158.49	8346.77	230.835	8349.96	1.58415	92.2298
40	125.89	8374.96	255.37	8378.85	1.74653	94.0919
41	100	8401.03	281.038	8405.73	1.91599	96.1039
42	79.433	8438.69	313.043	8444.5	2.12448	98.0609
43	63.096	8481.59	351.031	8488.85	2.36997	99.878
44	50.119	8518.89	389.431	8527.79	2.61739	101.92
45	39.811	8573.08	424.222	8583.57	2.83286	103.772
46	31.623	8626.7	466.394	8639.3	3.09462	106.119
47	25.119	8684.11	521.635	8699.76	3.4375	108.161
48	19.953	8749.61	577.677	8768.66	3.77737	110.748
49	15.849	8811.36	642.946	8834.78	4.17336	114.155
50	12.589	8887.03	716.508	8915.87	4.60944	116.677
51	10	8967.36	796.24	9002.64	5.07416	119.344
52	7.9433	9048.56	897.246	9092.93	5.66288	122.356
53	6.3096	9141.54	1012.45	9197.44	6.31993	125.543
54	5.0119	9241.95	1148.23	9313.01	7.0822	128.49
55	3.9811	9352.22	1309.89	9443.5	7.97309	131.448
56	3.1623	9471.21	1498.86	9589.08	8.99273	134.34
57	2.5119	9607.56	1725.41	9761.26	10.1811	137.602
58	1.9953	9759.21	1992.26	9960.48	11.5379	140.669
59	1.5849	9917.94	2312.57	10184	13.1252	144.101
60	1.2589	10094.4	2697.61	10448.7	14.9619	147.843
61	1	10282	3171.66	10760	17.1433	151.665
62	0.79433	10512.9	3722.35	11152.4	19.4978	155.232
63	0.63096	10759.8	4409.34	11628.2	22.2836	159.109
64	0.50119	11034.3	5206.99	12201.2	25.2621	163.501
65	0.39811	11319.2	6258.1	12934	28.9371	168.223
66	0.31623	11654.6	7478.91	13847.9	32.6889	173.565
67	0.25119	12083.8	9066.82	15107.1	36.8819	179.547
68	0.19953	12628.1	10820.9	16630.1	40.5929	186.675
69	0.15849	13163.7	13139	18598.8	44.9463	195.142
70	0.12589	13869.6	15916.8	21111.9	48.9317	204.389
71	0.1	14596.6	19168	24093	52.7104	215.411