File: data/Z_s6_1.3.txt
Index	Frequency (Hz)	Z' (Ω)	-Z'' (Ω)	Z (Ω)	-Phase (°)	Time (s)
1	1000000	3887.42	3214.31	5044.19	39.5857	15.4234
2	794330	4423.27	2872.95	5274.39	33.004	17.2404
3	630960	4982.91	2658.66	5647.82	28.0824	19.0025
4	501190	5529.2	2504.16	6069.83	24.3656	21.0645
5	398110	6161.18	2292.16	6573.74	20.4068	22.7715
6	316230	6560.78	2102.88	6889.56	17.7718	24.5786
7	251190	6772.58	1831.19	7015.78	15.13	26.1856
8	199530	7086.96	1656.76	7278.04	13.1581	27.9976
9	158490	7342.18	1477.22	7489.32	11.3758	29.6397
10	125890	7547.29	1301.77	7658.74	9.78618	31.4617
11	100000	7711.93	1137.38	7795.36	8.38969	33.1037
12	79433	7844.58	987.504	7906.49	7.17486	34.9658
13	63096	7951.68	852.772	7997.27	6.12125	36.5828
14	50119	8042.24	733.392	8075.62	5.21053	38.4148
15	39811	8114.35	627.286	8138.56	4.42051	40.0919
16	31623	8162.87	536.038	8180.45	3.7571	41.8539
17	25119	8212.48	466.12	8225.7	3.24848	43.5659
18	19953	8249.66	405.461	8259.62	2.81376	45.458
19	15849	8282.07	352.959	8289.59	2.44031	47.19
20	12589	8311.16	310.642	8316.97	2.14052	48.957
21	10000	8337.79	274.766	8342.32	1.88746	50.5791
22	7943.3	8364.82	246.445	8368.45	1.68757	52.4411
23	6309.6	8381.19	222.602	8384.14	1.52141	54.0681
24	5011.9	8405.77	202.952	8408.22	1.3831	55.7251
25	3981.1	8425.59	187.784	8427.69	1.27676	57.4072
26	3162.3	8443.47	174.792	8445.28	1.18593	59.0142
27	2511.9	8462.45	164.863	8464.06	1.11608	60.7512
28	1995.3	8480.71	157.498	8482.17	1.06393	62.4183
29	1584.9	8496.3	152.51	8497.67	1.02836	64.0503
30	1258.9	8512.12	149.136	8513.43	1.00375	65.6773
31	1000	8530.01	147.33	8531.28	0.989515	67.4494
32	794.33	8543.81	148.684	8545.1	0.996992	69.1264
33	630.96	8563.45	152.621	8564.81	1.02104	70.8884
34	501.19	8581.27	159.221	8582.74	1.06297	72.3755
35	398.11	8597.17	167.169	8598.79	1.11396	74.1375
36	316.23	8616.41	177.98	8618.24	1.18333	75.7095
37	251.19	8635.93	193.063	8638.09	1.28068	77.4916
38	199.53	8656.21	209.81	8658.75	1.38847	79.1186
39	158.49	8683.87	231.277	8686.95	1.52559	80.8356
40	125.89	8702.75	254.786	8706.48	1.67694	82.5476
41	100	8736.99	280.402	8741.49	1.8382	84.2797
42	79.433	8771.65	311.785	8777.19	2.0357	85.9817
43	63.096	8808	355.658	8815.17	2.31229	87.8787
44	50.119	8848.09	389.725	8856.67	2.52203	89.9158
45	39.811	8902.02	425.543	8912.18	2.73683	91.8478
46	31.623	8952.88	473.09	8965.37	3.02483	93.7799
47	25.119	9022.9	518.154	9037.77	3.28669	95.6969
48	19.953	9073.65	579.931	9092.17	3.65701	97.8139
49	15.849	9140.52	644.813	9163.23	4.03522	100.341
50	12.589	9220.04	716.29	9247.82	4.44229	102.673
51	10	9296.52	796.278	9330.56	4.89563	105.28
52	7.9433	9378.48	897.899	9421.37	5.46885	108.182
53	6.3096	9476.1	1012.34	9530.02	6.09781	110.914
54	5.0119	9577.46	1153.2	9646.64	6.86582	113.371
55	3.9811	9686.17	1309.7	9774.32	7.70047	116.233
56	3.1623	9810.61	1499.02	9924.48	8.68738	119.245
57	2.5119	9945.77	1723.16	10093.9	9.82926	122.142
58	1.9953	10080.9	1985.22	10274.5	11.1406	125.104
59	1.5849	10249.7	2302.7	10505.2	12.6619	128.256
60	1.2589	10429.4	2703.09	10774	14.5302	131.414
61	1	10631.5	3148.11	11087.8	16.4945	137.218
62	0.79433	10869.1	3699.97	11481.6	18.7992	141.63
63	0.63096	11084.4	4373.58	11916	21.5328	145.212
64	0.50119	11355.3	5202.85	12490.5	24.6166	149.984
65	0.39811	11681	6184.03	13216.9	27.8972	154.841
66	0.31623	11966.1	7425.85	14083	31.8226	160.598
67	0.25119	12401.3	8918.22	15275.1	35.7212	167.235
68	0.19953	12871.1	10726.1	16754.6	39.8059	173.522
69	0.15849	13448.6	12929.3	18655.6	43.8721	181.224
70	0.12589	13998.7	15687.5	21025.2	48.256	190.262
71	0.1	14729.4	19159.7	24167.1	52.448	201.434