File: data/Z_s6_1.txt
Index	Frequency (Hz)	Z' (Ω)	-Z'' (Ω)	Z (Ω)	-Phase (°)	Time (s)
1	1000000	3907.91	3041.8	4952.21	37.8961	24.2826
2	794330	4018.95	2636.99	4806.83	33.2705	26.0846
3	630960	4890.68	2485.98	5486.25	26.9447	27.8116
4	501190	5399.39	2325.76	5878.99	23.3037	29.8837
5	398110	5966.38	2131.37	6335.64	19.6582	32.1507
6	316230	6329.7	1961.8	6626.74	17.2201	34.1228
7	251190	6523.63	1716.64	6745.71	14.7427	36.2748
8	199530	6820.14	1567.1	6997.86	12.9405	38.4768
9	158490	7065.02	1411.01	7204.54	11.2944	40.3939
10	125890	7268.74	1256.24	7376.5	9.80541	42.8809
11	100000	7436.9	1109.1	7519.14	8.48225	45.128
12	79433	7576.54	972.396	7638.69	7.31353	47.48
13	63096	7689.23	846.848	7735.72	6.2849	49.392
14	50119	7781.19	734.131	7815.75	5.38972	51.6791
15	39811	7855.88	631.31	7881.21	4.5945	53.5461
16	31623	7910.62	541.313	7929.12	3.91457	55.5131
17	25119	7957.81	471.557	7971.77	3.39122	57.4002
18	19953	8000.31	410.443	8010.83	2.9369	59.5672
19	15849	8033.57	358.196	8041.55	2.55298	62.1943
20	12589	8072.39	315.238	8078.55	2.23635	64.1213
21	10000	8096.12	279.088	8100.93	1.97431	66.2533
22	7943.3	8123.91	250.11	8127.76	1.7634	68.1454
23	6309.6	8141.02	225.86	8144.15	1.58917	70.4774
24	5011.9	8165.99	206.458	8168.6	1.44828	72.4445
25	3981.1	8182.97	190.574	8185.19	1.33412	74.1315
26	3162.3	8203.05	178.541	8204.99	1.24686	76.2235
27	2511.9	8221.12	169.167	8222.86	1.17881	78.2056
28	1995.3	8237.82	162.38	8239.42	1.12924	80.4576
29	1584.9	8257.1	158.074	8258.61	1.09674	82.3096
30	1258.9	8273.94	157.425	8275.44	1.09001	84.3567
31	1000	8290.17	157.918	8291.68	1.09129	86.5637
32	794.33	8311.23	161.319	8312.8	1.11196	88.7808
33	630.96	8327.34	167.597	8329.02	1.15299	91.1478
34	501.19	8345.53	176.549	8347.4	1.2119	94.0599
35	398.11	8363.04	188.826	8365.17	1.29344	95.6769
36	316.23	8387.27	204.03	8389.75	1.39351	98.1189
37	251.19	8414.51	222.686	8417.45	1.51595	100.061
38	199.53	8435.96	244.81	8439.52	1.66225	102.138
39	158.49	8465.42	270.91	8469.76	1.83295	103.96
40	125.89	8498.58	301.943	8503.94	2.03479	105.852
41	100	8535.31	332.855	8541.79	2.23326	107.854
42	79.433	8575.65	370.424	8583.65	2.47335	109.666
43	63.096	8613.79	419.004	8623.97	2.78487	112.228
44	50.119	8672.21	445.248	8683.63	2.93909	115.165
45	39.811	8738.23	503.701	8752.74	3.29907	116.997
46	31.623	8790.98	556.884	8808.61	3.62468	120.646
47	25.119	8878.99	611.603	8900.03	3.94043	122.983
48	19.953	8941.63	674.232	8967.02	4.31215	125.435
49	15.849	9025.51	747.082	9056.38	4.73184	128.072
50	12.589	9111.44	829.203	9149.09	5.19998	131.31
51	10	9194.72	923.135	9240.95	5.73319	134.397
52	7.9433	9302.32	1036.55	9359.9	6.35819	137.394
53	6.3096	9409.84	1160.05	9481.07	7.02797	140.506
54	5.0119	9518.42	1319.24	9609.41	7.89082	144.148
55	3.9811	9642.62	1506.43	9759.58	8.87933	147.46
56	3.1623	9775.42	1725.21	9926.49	10.0087	150.507
57	2.5119	9927.42	1989.44	10124.8	11.3319	153.774
58	1.9953	10096.9	2295.25	10354.5	12.8069	157.241
59	1.5849	10282.1	2675.21	10624.5	14.5839	161.768
60	1.2589	10475.3	3129.33	10932.7	16.6327	165.435
61	1	10702.7	3669.71	11314.3	18.9257	169.562
62	0.79433	10974.7	4325.7	11796.4	21.512	173.634
63	0.63096	11259.9	5115.87	12367.6	24.4344	178.166
64	0.50119	11594.9	6068.99	13087.2	27.6284	182.403
65	0.39811	11967.7	7281.4	14008.8	31.3172	187.666
66	0.31623	12376.5	8739	15150.8	35.2259	192.988
67	0.25119	12915.7	10461.1	16620.7	39.0058	199.04
68	0.19953	13425	12615.7	18422.5	43.22	205.937
69	0.15849	14100.2	15129.4	20681.3	47.0166	214.039
70	0.12589	14938.1	18211.7	23554.5	50.6399	223.771
71	0.1	15758.6	22067.1	27116.2	54.4685	246.191