File: data/Z_s6_1.4.txt
Index	Frequency (Hz)	Z' (Ω)	-Z'' (Ω)	Z (Ω)	-Phase (°)	Time (s)
1	1000000	3776.85	3142.87	4913.47	39.7652	26.6646
2	794330	4322.3	2820.07	5160.92	33.1223	29.2267
3	630960	4886.18	2648.83	5557.97	28.4624	31.9887
4	501190	5412.68	2498.88	5961.67	24.7815	34.2507
5	398110	6032.41	2272.51	6446.26	20.6422	36.1978
6	316230	6430.89	2078.7	6758.5	17.9127	38.7998
7	251190	6641.76	1802.87	6882.1	15.1867	41.1819
8	199530	6944.89	1626.08	7132.72	13.1779	43.5139
9	158490	7192.67	1445.35	7336.45	11.3621	46.306
10	125890	7389.15	1269.77	7497.46	9.75059	48.853
11	100000	7551.26	1107.15	7632	8.34115	50.7001
12	79433	7677.56	959.041	7737.22	7.12022	52.7671
13	63096	7784.08	828.195	7828.01	6.07319	55.0841
14	50119	7868.72	710.903	7900.77	5.1624	57.1262
15	39811	7932.71	607.425	7955.93	4.37872	59.6982
16	31623	7986.31	518.724	8003.14	3.71623	62.2453
17	25119	8026.78	450.434	8039.41	3.21186	64.3473
18	19953	8062.53	391.604	8072.03	2.78072	66.3293
19	15849	8095.02	341.146	8102.2	2.41317	68.4164
20	12589	8123.43	300.024	8128.97	2.11516	70.3334
21	10000	8147.78	266.213	8152.12	1.87137	72.5805
22	7943.3	8169.16	238.159	8172.63	1.6699	75.6025
23	6309.6	8191.65	215.449	8194.48	1.50659	77.8496
24	5011.9	8211.66	197.175	8214.03	1.3755	79.7916
25	3981.1	8232.46	181.699	8234.47	1.26437	81.9886
26	3162.3	8248.68	169.551	8250.43	1.17754	83.7457
27	2511.9	8268.08	160.309	8269.63	1.11076	86.0777
28	1995.3	8284.91	153.001	8286.32	1.05799	87.7297
29	1584.9	8304.25	147.822	8305.56	1.0198	89.5918
30	1258.9	8319.4	145.829	8320.68	1.00422	91.1688
31	1000	8331.3	144.309	8332.55	0.992339	92.9558
32	794.33	8351.94	144.866	8353.2	0.993706	94.5629
33	630.96	8362.18	148.897	8363.51	1.0201	96.1999
34	501.19	8382.41	154.212	8383.83	1.05396	97.8369
35	398.11	8403.79	163.552	8405.38	1.11493	99.524
36	316.23	8416.17	174.569	8417.98	1.18827	101.301
37	251.19	8436.61	188.741	8438.72	1.28158	103.248
38	199.53	8457.5	206.786	8460.03	1.4006	104.935
39	158.49	8483.78	226.91	8486.81	1.53209	106.632
40	125.89	8505.17	248.694	8508.8	1.67487	108.849
41	100	8534.12	278.031	8538.65	1.86596	110.981
42	79.433	8570.05	306.294	8575.52	2.04688	112.868
43	63.096	8608.96	331.31	8615.34	2.2039	115.03
44	50.119	8641.78	378.552	8650.06	2.50823	117.152
45	39.811	8694.79	417.182	8704.79	2.74699	119.369
46	31.623	8746.6	462.171	8758.8	3.0247	121.436
47	25.119	8808.52	508.303	8823.17	3.30264	123.463
48	19.953	8867.53	569.803	8885.82	3.67661	125.84
49	15.849	8922.33	629.947	8944.54	4.03858	129.25
50	12.589	9003.52	704.216	9031.02	4.47232	131.802
51	10	9077.69	787.491	9111.78	4.95801	134.654
52	7.9433	9164.78	883.401	9207.26	5.50578	137.441
53	6.3096	9257.18	999.996	9311.03	6.16541	140.248
54	5.0119	9355.74	1132.66	9424.06	6.90298	142.99
55	3.9811	9464.7	1288.49	9552.01	7.75239	145.922
56	3.1623	9584.6	1476.59	9697.68	8.75803	148.984
57	2.5119	9715.12	1697.14	9862.25	9.90904	152.246
58	1.9953	9860.18	1960.59	10053.2	11.246	155.578
59	1.5849	10015	2272.03	10269.5	12.7819	158.88
60	1.2589	10178	2645.89	10516.3	14.5722	162.362
61	1	10396.3	3107.31	10850.7	16.6407	169.336
62	0.79433	10610.7	3659.46	11224	19.0285	172.988
63	0.63096	10839.2	4320.58	11668.6	21.7325	177.08
64	0.50119	11114.5	5103.38	12230.2	24.6628	181.652
65	0.39811	11398.7	6157.79	12955.6	28.3788	186.035
66	0.31623	11720.7	7388.28	13855	32.2258	191.277
67	0.25119	12153.1	8804.25	15007.1	35.9211	196.999
68	0.19953	12652.6	10699.3	16569.9	40.2186	203.576
69	0.15849	13184.9	12954.4	18484	44.4948	211.228
70	0.12589	13865.2	15595.2	20867.5	48.3606	220.185
71	0.1	14398.1	18849.5	23719.4	52.6258	230.957