File: data/Z_s6_1.5.txt
Index	Frequency (Hz)	Z' (Ω)	-Z'' (Ω)	Z (Ω)	-Phase (°)	Time (s)
1	1000000	3689.03	3282.7	4938.12	41.6644	16.0724
2	794330	4229.23	3013.24	5192.88	35.4691	17.8194
3	630960	4892.7	2803.55	5639.01	29.813	19.5015
4	501190	5470.61	2632.64	6071.11	25.6984	21.5035
5	398110	6139.18	2419.39	6598.71	21.509	23.1905
6	316230	6565.48	2207.68	6926.71	18.5855	24.9676
7	251190	6790.17	1911.5	7054.1	15.7225	28.0116
8	199530	7113.65	1719.28	7318.47	13.5871	29.7487
9	158490	7367.36	1524.12	7523.36	11.6882	31.4257
10	125890	7572.73	1337.06	7689.86	10.0131	33.2877
11	100000	7739.52	1163.55	7826.49	8.54972	35.1498
12	79433	7874.6	1007.6	7938.81	7.29168	36.9218
13	63096	7981.99	868.146	8029.06	6.20727	38.5988
14	50119	8066.42	744.392	8100.69	5.27248	40.3359
15	39811	8137.78	635.99	8162.6	4.46874	42.0029
16	31623	8184.92	542.176	8202.86	3.78978	43.7749
17	25119	8231.7	470.632	8245.15	3.27222	45.422
18	19953	8268.32	408.092	8278.39	2.8256	47.289
19	15849	8303.12	355.334	8310.72	2.45049	48.856
20	12589	8328.55	312.167	8334.4	2.14653	50.6881
21	10000	8359.47	275.916	8364.02	1.89044	52.2251
22	7943.3	8378.47	246.784	8382.1	1.68713	54.1321
23	6309.6	8405.46	223.422	8408.43	1.52259	55.7741
24	5011.9	8424.66	203.366	8427.12	1.38281	57.6212
25	3981.1	8444.06	187.01	8446.13	1.26872	59.3832
26	3162.3	8458.92	174.535	8460.72	1.18203	61.0802
27	2511.9	8481.69	163.861	8483.27	1.10678	62.7373
28	1995.3	8495.74	156.237	8497.17	1.05356	64.3993
29	1584.9	8514.87	150.784	8516.21	1.01451	66.0063
30	1258.9	8532.33	146.544	8533.59	0.983968	67.5884
31	1000	8545.29	146.024	8546.54	0.978991	69.5254
32	794.33	8558.07	147.19	8559.33	0.985333	71.1574
33	630.96	8577.68	150.627	8579.01	1.00603	72.8895
34	501.19	8592.34	155.876	8593.76	1.0393	74.5315
35	398.11	8611.06	164.596	8612.64	1.09504	76.2435
36	316.23	8629.73	175.541	8631.52	1.16532	77.8706
37	251.19	8650.57	191.438	8652.69	1.26775	79.7726
38	199.53	8668.22	207.336	8670.7	1.3702	81.3546
39	158.49	8691.33	228.072	8694.33	1.50317	83.2667
40	125.89	8719.14	250.237	8722.73	1.64393	85.0037
41	100	8740.33	278.115	8744.76	1.82252	86.9907
42	79.433	8779.42	308.818	8784.85	2.01456	88.8928
43	63.096	8831.02	339.714	8837.55	2.20298	90.7248
44	50.119	8846.88	386.699	8855.33	2.50282	93.5068
45	39.811	8905.47	420.23	8915.37	2.70166	95.2989
46	31.623	8964.24	456.623	8975.86	2.91603	97.1959
47	25.119	9020.2	515.801	9034.94	3.27278	98.8879
48	19.953	9072.88	570.174	9090.78	3.59595	100.855
49	15.849	9134.01	634.602	9156.03	3.97434	103.957
50	12.589	9209.63	705.948	9236.65	4.38334	105.969
51	10	9290.14	790.809	9323.73	4.86549	108.616
52	7.9433	9374.93	888.871	9416.98	5.41623	111.133
53	6.3096	9461.13	998.041	9513.63	6.02177	114.345
54	5.0119	9556.16	1134.34	9623.25	6.76945	117.042
55	3.9811	9669.43	1292.04	9755.37	7.61083	119.634
56	3.1623	9788.98	1478.28	9899.97	8.58764	122.611
57	2.5119	9922.88	1697.73	10067.1	9.70888	125.143
58	1.9953	10057.3	1963.45	10247.2	11.0467	127.99
59	1.5849	10227.5	2278.29	10478.2	12.5583	131.108
60	1.2589	10388.6	2643.49	10719.6	14.2766	134.565
61	1	10592.2	3105.61	11038.1	16.3409	140.559
62	0.79433	10810.7	3664.48	11414.9	18.725	144.306
63	0.63096	11056.8	4322.79	11871.8	21.3537	148.153
64	0.50119	11287.2	5104.86	12387.9	24.3358	152.555
65	0.39811	11616.2	6135.15	13136.9	27.8409	157.097
66	0.31623	11936.2	7363.48	14024.8	31.6705	162.424
67	0.25119	12359.4	8818.23	15182.7	35.5073	168.486
68	0.19953	12735	10590.1	16562.9	39.746	176.163
69	0.15849	13329.1	12929.6	18569.9	44.1284	184.876
70	0.12589	13937.8	15639.2	20948.7	48.2922	194.453
71	0.1	14555.9	19010.1	23942.8	52.559	207.06