File: data/Z_s7_1.2.txt
Index	Frequency (Hz)	Z' (Ω)	-Z'' (Ω)	Z (Ω)	-Phase (°)	Time (s)
1	1000000	2861.13	2017.64	3500.99	35.1911	24.8036
2	794330	3150.8	1858.91	3658.29	30.5397	26.9956
3	630960	3490.35	1727.55	3894.48	26.3331	29.4377
4	501190	3824.66	1625.62	4155.8	23.0272	31.7747
5	398110	4167.76	1486.01	4424.75	19.6237	34.3168
6	316230	4422.46	1374.42	4631.11	17.2643	36.9838
7	251190	4558.08	1204.94	4714.65	14.8075	38.8408
8	199530	4771.1	1104.37	4897.24	13.0328	40.7079
9	158490	4944.19	996.442	5043.6	11.3946	42.4749
10	125890	5085.41	889.415	5162.6	9.92044	44.3369
11	100000	5209.85	787.588	5269.04	8.59649	46.294
12	79433	5305.05	691.938	5349.98	7.43114	48.016
13	63096	5390.72	604.541	5424.51	6.3987	49.783
14	50119	5454.49	525.358	5479.74	5.50156	51.4801
15	39811	5509.97	454.217	5528.66	4.71255	53.0471
16	31623	5553.1	391.74	5566.9	4.03521	55.9242
17	25119	5589.23	341.611	5599.66	3.49754	58.0462
18	19953	5619.7	298.231	5627.61	3.03778	60.0182
19	15849	5646.32	261.567	5652.38	2.65234	61.8203
20	12589	5667.9	230.861	5672.6	2.33244	63.6773
21	10000	5687.7	205.759	5691.42	2.07184	65.5893
22	7943.3	5708.39	185.418	5711.4	1.86041	67.2664
23	6309.6	5724.66	168.795	5727.15	1.68891	68.9934
24	5011.9	5743.11	155.852	5745.23	1.55446	70.7254
25	3981.1	5758.7	145.581	5760.54	1.44814	72.5075
26	3162.3	5769.58	137.587	5771.22	1.36607	74.2095
27	2511.9	5785.49	131.854	5786.99	1.30557	75.9765
28	1995.3	5801.3	128.495	5802.73	1.26886	77.6536
29	1584.9	5815.62	126.792	5817	1.24896	79.2306
30	1258.9	5829.47	126.172	5830.84	1.23991	81.0876
31	1000	5843.57	128.081	5844.97	1.25563	82.7747
32	794.33	5858.82	131.154	5860.29	1.28239	84.6917
33	630.96	5876.33	136.436	5877.91	1.33005	86.3387
34	501.19	5893.52	142.462	5895.24	1.38472	88.2408
35	398.11	5910.73	150.953	5912.66	1.46295	89.8078
36	316.23	5931.67	160.983	5933.86	1.5546	91.6548
37	251.19	5949.75	172.126	5952.24	1.65711	93.3219
38	199.53	5970.54	185.487	5973.42	1.77944	95.1139
39	158.49	5993.56	200.286	5996.9	1.91393	96.9859
40	125.89	6017.6	217.594	6021.53	2.07089	98.943
41	100	6044.68	236.082	6049.28	2.23662	100.65
42	79.433	6074.59	258.365	6080.09	2.43544	102.477
43	63.096	6104.03	282.075	6110.54	2.64583	104.349
44	50.119	6143.05	308.615	6150.8	2.87601	106.661
45	39.811	6176.67	343.193	6186.2	3.18025	108.958
46	31.623	6222.5	379.303	6234.05	3.48824	111.14
47	25.119	6265.47	419.135	6279.47	3.82716	113.192
48	19.953	6313.27	470.352	6330.77	4.26078	115.499
49	15.849	6362.73	525.215	6384.37	4.71881	118.111
50	12.589	6424.94	589.011	6451.88	5.23799	120.543
51	10	6486.28	661.82	6519.96	5.82594	123.375
52	7.9433	6553.03	747.906	6595.58	6.51107	126.352
53	6.3096	6631.78	846.695	6685.61	7.27573	129.32
54	5.0119	6713.16	966.393	6782.37	8.19173	132.312
55	3.9811	6805.05	1104.63	6894.12	9.22009	135.044
56	3.1623	6905.11	1267.92	7020.55	10.4048	137.886
57	2.5119	7017.12	1463.4	7168.09	11.78	141.098
58	1.9953	7143.53	1696.84	7342.3	13.3621	144.365
59	1.5849	7281.45	1976.27	7544.87	15.1849	147.807
60	1.2589	7430.08	2307.38	7780.11	17.252	151.414
61	1	7614.04	2706.59	8080.8	19.569	155.511
62	0.79433	7818.87	3190.32	8444.7	22.1968	159.318
63	0.63096	8056.28	3768.31	8894.03	25.0678	163.61
64	0.50119	8295.86	4463.86	9420.58	28.284	167.792
65	0.39811	8603.15	5309.41	10109.6	31.6807	172.659
66	0.31623	8930.48	6350.92	10958.4	35.4186	177.981
67	0.25119	9374.03	7577.03	12053.4	38.9486	183.964
68	0.19953	9767.24	9086.49	13340.3	42.9321	190.961
69	0.15849	10310.1	10864.2	14977.7	46.499	198.828
70	0.12589	10931.1	13130	17084.7	50.2214	207.785
71	0.1	11814	15799.2	19727.8	53.2123	218.377