File: data/Z_s7_1.txt
Index	Frequency (Hz)	Z' (Ω)	-Z'' (Ω)	Z (Ω)	-Phase (°)	Time (s)
1	1000000	2463.83	2129.84	3256.79	40.8416	45.395
2	794330	2836.23	1957.21	3445.99	34.6086	47.732
3	630960	3280.44	1946.97	3814.71	30.6895	50.1341
4	501190	3680.93	1834.19	4112.6	26.4868	52.1361
5	398110	4063.74	1659.05	4389.35	22.2081	54.2731
6	316230	4335.26	1522.72	4594.9	19.3533	56.0152
7	251190	4483.94	1338.11	4679.34	16.6163	58.1122
8	199530	4703.19	1234.14	4862.41	14.7032	59.9792
9	158490	4890.55	1128.39	5019.04	12.9924	62.1063
10	125890	5053.63	1023.22	5156.18	11.4461	64.7183
11	100000	5198.92	920.079	5279.71	10.036	66.8754
12	79433	5321.03	817.797	5383.51	8.73751	68.9474
13	63096	5424.71	720.877	5472.4	7.56955	70.8944
14	50119	5513.19	629.202	5548.98	6.5108	72.6115
15	39811	5584.5	544.419	5610.97	5.56803	74.6785
16	31623	5639.94	468.535	5659.37	4.74892	76.5505
17	25119	5680.43	405.305	5694.87	4.0812	78.6326
18	19953	5719.17	351.493	5729.96	3.5169	80.3196
19	15849	5749.45	305.437	5757.55	3.04095	82.4617
20	12589	5775.31	267.971	5781.52	2.65659	84.2337
21	10000	5795	237.197	5799.86	2.34388	86.1157
22	7943.3	5816.16	212.604	5820.04	2.09345	87.9328
23	6309.6	5834.31	192.925	5837.5	1.89393	90.1848
24	5011.9	5852.62	177.553	5855.31	1.73767	91.8768
25	3981.1	5869.75	166.113	5872.1	1.62103	93.8189
26	3162.3	5885.83	157.811	5887.95	1.53585	95.5859
27	2511.9	5902.96	152.213	5904.92	1.47709	97.5079
28	1995.3	5919.17	149.187	5921.05	1.44378	99.175
29	1584.9	5933.63	148.469	5935.48	1.43334	101.212
30	1258.9	5951.99	149.072	5953.86	1.43471	102.754
31	1000	5969.01	152.98	5970.97	1.46811	105.136
32	794.33	5985.82	157.858	5987.9	1.51065	107.043
33	630.96	6009.61	165.601	6011.89	1.57844	109.11
34	501.19	6028.48	174.107	6030.99	1.65428	111.462
35	398.11	6050.8	184.494	6053.62	1.74646	113.129
36	316.23	6072.13	198.134	6075.36	1.8689	114.936
37	251.19	6098.73	212.741	6102.44	1.99783	116.803
38	199.53	6123.09	230.095	6127.41	2.15207	118.825
39	158.49	6154.58	249.25	6159.62	2.31911	120.517
40	125.89	6184.95	270.995	6190.88	2.50883	122.844
41	100	6215.83	294.5	6222.8	2.71259	124.666
42	79.433	6253.74	322.231	6262.03	2.94962	126.643
43	63.096	6292.66	358.219	6302.85	3.25813	128.901
44	50.119	6334.68	384.977	6346.37	3.47775	131.243
45	39.811	6380.79	429.604	6395.23	3.85178	133.41
46	31.623	6431.97	476.888	6449.62	4.24034	135.477
47	25.119	6486.8	526.717	6508.15	4.64213	137.869
48	19.953	6543.54	592.496	6570.31	5.17383	140.956
49	15.849	6613.34	663.523	6646.54	5.72937	143.953
50	12.589	6681.35	747.151	6723	6.38067	146.78
51	10	6760.08	844.385	6812.61	7.1198	149.557
52	7.9433	6847.46	959.786	6914.4	7.97898	152.659
53	6.3096	6940.77	1095.61	7026.71	8.97022	155.741
54	5.0119	7046.64	1249.24	7156.52	10.0531	159.048
55	3.9811	7163.16	1436.92	7305.86	11.3429	162.635
56	3.1623	7293.93	1656.21	7479.6	12.793	166.037
57	2.5119	7438.9	1918.71	7682.36	14.463	169.319
58	1.9953	7603.64	2225.06	7922.51	16.3111	172.336
59	1.5849	7792.43	2600.69	8214.96	18.4562	175.578
60	1.2589	8001.78	3036.33	8558.49	20.7796	179.075
61	1	8235.36	3571.28	8976.37	23.4441	183.063
62	0.79433	8508.29	4198.58	9487.84	26.2649	187.075
63	0.63096	8819.72	4955.47	10116.5	29.33	191.302
64	0.50119	9178.11	5864.92	10892	32.5791	195.869
65	0.39811	9584.89	6968.75	11850.5	36.0192	200.781
66	0.31623	10061.4	8303.6	13045.4	39.5326	206.008
67	0.25119	10609.9	9903.37	14513.7	43.0274	212.41
68	0.19953	11244	11896	16369	46.6141	219.037
69	0.15849	11965	14229	18591	49.9399	226.819
70	0.12589	12883.7	17053.9	21373.5	52.9302	236.207
71	0.1	14077.8	20478	24850.3	55.493	247.169