File: data/Z_s7_1.4.txt
Index	Frequency (Hz)	Z' (Ω)	-Z'' (Ω)	Z (Ω)	-Phase (°)	Time (s)
1	1000000	2857.85	2032.48	3506.89	35.4201	22.4685
2	794330	3157.59	1868.92	3669.23	30.6205	24.4006
3	630960	3501.45	1738.65	3909.35	26.4068	26.3226
4	501190	3826.97	1634.13	4161.26	23.1227	28.3696
5	398110	4184.21	1488.73	4441.16	19.5854	30.2767
6	316230	4441.38	1373.33	4648.86	17.1822	31.9787
7	251190	4576.27	1194.67	4729.64	14.6309	33.7907
8	199530	4784.97	1088.26	4907.16	12.8129	35.6678
9	158490	4952.18	976.187	5047.48	11.1513	37.7748
10	125890	5090.68	866.514	5163.9	9.66007	39.5968
11	100000	5202.35	762.869	5257.98	8.34237	41.4939
12	79433	5297.87	667.703	5339.78	7.18326	43.4559
13	63096	5374.89	581.827	5406.29	6.17816	45.398
14	50119	5435.21	504.343	5458.56	5.3014	47.505
15	39811	5488.38	435.997	5505.67	4.54204	49.362
16	31623	5525.07	375.889	5537.84	3.89203	51.4391
17	25119	5559.45	328.014	5569.12	3.37661	53.3611
18	19953	5589.74	286.738	5597.09	2.93654	55.3831
19	15849	5614.63	252.084	5620.29	2.57072	57.2652
20	12589	5633.94	222.863	5638.35	2.26528	59.2022
21	10000	5655.35	198.796	5658.84	2.01322	61.0892
22	7943.3	5674.53	179.696	5677.37	1.81379	63.1013
23	6309.6	5691.24	163.682	5693.6	1.64739	64.8133
24	5011.9	5707	150.774	5708.99	1.51335	66.6804
25	3981.1	5722.36	140.604	5724.08	1.40753	68.3224
26	3162.3	5735.86	133.056	5737.4	1.32887	70.1244
27	2511.9	5751.76	127.535	5753.18	1.27022	71.7264
28	1995.3	5764.03	123.591	5765.36	1.22833	73.6085
29	1584.9	5777.03	121.519	5778.31	1.20503	75.3055
30	1258.9	5793.98	121.049	5795.25	1.19686	77.3175
31	1000	5808.05	122.869	5809.35	1.21191	79.1046
32	794.33	5823.28	125.482	5824.64	1.23444	81.2366
33	630.96	5835.58	129.681	5837.02	1.27304	83.0087
34	501.19	5854.16	135.754	5855.74	1.32842	85.0057
35	398.11	5871.2	143.539	5872.96	1.40049	86.6227
36	316.23	5885.35	152.148	5887.31	1.48088	88.5648
37	251.19	5906.08	163.723	5908.34	1.58789	90.4468
38	199.53	5925.12	176.398	5927.75	1.70526	92.3889
39	158.49	5945.25	190.143	5948.29	1.83183	94.1159
40	125.89	5969.6	206.858	5973.18	1.98461	96.1379
41	100	5994.19	224.714	5998.4	2.14694	97.8449
42	79.433	6023.52	245.455	6028.51	2.33348	99.817
43	63.096	6052.09	265.984	6057.93	2.51648	101.659
44	50.119	6088	298.83	6095.33	2.81012	103.911
45	39.811	6120.39	325.132	6129.02	3.04085	105.938
46	31.623	6158.31	360.38	6168.85	3.34909	108.22
47	25.119	6202.06	399.045	6214.89	3.68137	111.012
48	19.953	6250.62	445.172	6266.45	4.07375	113.134
49	15.849	6303.94	496.299	6323.45	4.50152	115.706
50	12.589	6355.66	556.193	6379.95	5.00129	118.338
51	10	6414.9	625.312	6445.31	5.56749	121.03
52	7.9433	6481.83	702.579	6519.79	6.18626	123.842
53	6.3096	6553.31	796.605	6601.55	6.93073	126.894
54	5.0119	6633.8	908.333	6695.7	7.79674	130.177
55	3.9811	6716.9	1036.25	6796.37	8.77019	133.124
56	3.1623	6815.62	1188.67	6918.49	9.89308	136.071
57	2.5119	6921.7	1370.41	7056.06	11.199	139.893
58	1.9953	7034.35	1585.11	7210.73	12.6988	142.7
59	1.5849	7165.51	1840.44	7398.09	14.4049	145.782
60	1.2589	7302.46	2148.2	7611.88	16.3925	148.929
61	1	7466.93	2518.32	7880.16	18.6374	152.381
62	0.79433	7660.3	2968.63	8215.41	21.183	156.013
63	0.63096	7875.31	3479.98	8609.92	23.8399	160.545
64	0.50119	8093.16	4129.73	9085.92	27.034	164.537
65	0.39811	8383.72	4915.25	9718.36	30.3825	168.894
66	0.31623	8693.77	5863.53	10486.3	33.9978	174.096
67	0.25119	9057.11	7020.93	11459.7	37.7823	180.273
68	0.19953	9518.5	8484.57	12751.1	41.7131	187.101
69	0.15849	9978.27	10197.6	14267.3	45.6227	195.003
70	0.12589	10588.3	12275.7	16211.3	49.2208	204.22
71	0.1	11302.6	14650.7	18503.8	52.3508	214.907