File: data/Z_s7_1.3.txt
Index	Frequency (Hz)	Z' (Ω)	-Z'' (Ω)	Z (Ω)	-Phase (°)	Time (s)
1	1000000	2845.36	2174.02	3580.85	37.3819	27.0806
2	794330	3182.69	2012.53	3765.6	32.3066	29.3327
3	630960	3589.13	1895.93	4059.12	27.845	31.5297
4	501190	3947.78	1781.56	4331.16	24.2887	35.8818
5	398110	4343.75	1634.14	4640.97	20.6166	38.4738
6	316230	4625.04	1514.91	4866.82	18.136	40.3059
7	251190	4782.09	1336.18	4965.26	15.6111	42.1829
8	199530	5014.21	1221.39	5160.83	13.6898	43.9949
9	158490	5205.08	1099.98	5320.03	11.9327	45.527
10	125890	5362.97	979.629	5451.71	10.3518	51.0391
11	100000	5493.72	864.504	5561.32	8.94286	53.3661
12	79433	5602.12	758.191	5653.19	7.70759	55.4331
13	63096	5687.8	660.661	5726.04	6.62545	57.6002
14	50119	5761.58	573.444	5790.05	5.68387	59.3422
15	39811	5820.13	494.943	5841.14	4.86073	61.9143
16	31623	5867.71	427.143	5883.24	4.16353	64.1213
17	25119	5905.4	372.317	5917.13	3.60754	67.5184
18	19953	5937.54	324.725	5946.41	3.1304	69.2304
19	15849	5968.69	284.285	5975.45	2.72691	70.8074
20	12589	5991.24	250.596	5996.48	2.39512	72.3695
21	10000	6013.32	222.726	6017.44	2.12119	73.9815
22	7943.3	6034.42	200.425	6037.74	1.9023	75.8785
23	6309.6	6055.77	182.178	6058.51	1.72313	77.3455
24	5011.9	6071.83	166.998	6074.12	1.57545	78.7876
25	3981.1	6089.7	155.24	6091.68	1.46028	80.2846
26	3162.3	6103.97	146.552	6105.73	1.37537	81.7066
27	2511.9	6120.24	139.799	6121.84	1.30853	83.2737
28	1995.3	6136.41	135.023	6137.89	1.26051	84.8407
29	1584.9	6151.83	132.353	6153.25	1.2325	86.2077
30	1258.9	6165.16	131.229	6166.56	1.21938	87.9097
31	1000	6180.95	132.72	6182.37	1.23009	89.8768
32	794.33	6197.77	135.813	6199.26	1.25533	91.8988
33	630.96	6215.11	140.218	6216.69	1.29242	93.8859
34	501.19	6233.19	146.138	6234.91	1.34306	95.7729
35	398.11	6251.23	154.194	6253.13	1.41298	97.7249
36	316.23	6269.82	163.62	6271.96	1.49488	99.857
37	251.19	6291	175.948	6293.46	1.60204	101.729
38	199.53	6314.2	189.773	6317.05	1.7215	103.441
39	158.49	6335.91	204.451	6339.2	1.84822	105.338
40	125.89	6360.01	222.152	6363.89	2.0005	107.15
41	100	6386.56	241.806	6391.14	2.16828	109.217
42	79.433	6416.03	262.364	6421.39	2.34164	110.944
43	63.096	6446.19	290.008	6452.71	2.57595	112.836
44	50.119	6481.11	318.742	6488.94	2.81555	114.838
45	39.811	6525.03	349.521	6534.39	3.06618	116.915
46	31.623	6568.17	382.745	6579.32	3.335	119.007
47	25.119	6616.14	425.482	6629.81	3.67961	121.119
48	19.953	6662.06	476.906	6679.11	4.09455	123.651
49	15.849	6714.04	532.203	6735.1	4.5322	125.958
50	12.589	6780.78	595.981	6806.92	5.02298	128.465
51	10	6844.8	669.119	6877.43	5.58326	131.408
52	7.9433	6912.93	754.24	6953.96	6.22666	134.155
53	6.3096	6994.98	854.247	7046.95	6.96265	136.952
54	5.0119	7074.9	970.978	7141.22	7.81461	139.844
55	3.9811	7170.64	1108.15	7255.76	8.785	142.896
56	3.1623	7273.82	1271.61	7384.13	9.91628	145.978
57	2.5119	7391.26	1464.48	7534.95	11.2072	149.265
58	1.9953	7518.48	1692.52	7706.63	12.6866	152.122
59	1.5849	7661.69	1965.14	7909.69	14.3856	155.124
60	1.2589	7803.4	2290.29	8132.56	16.3569	158.361
61	1	7998.33	2691.02	8438.89	18.5954	164.235
62	0.79433	8210.37	3163.7	8798.82	21.0731	167.832
63	0.63096	8435.27	3736.29	9225.7	23.8903	171.959
64	0.50119	8674.17	4423.27	9736.86	27.0187	176.176
65	0.39811	8986.28	5259.41	10412.2	30.3392	180.948
66	0.31623	9301.91	6300.3	11234.7	34.1103	186.381
67	0.25119	9717.57	7473.22	12258.9	37.5618	192.013
68	0.19953	10222.2	9000.3	13619.8	41.3627	198.47
69	0.15849	10766.9	10800.2	15250.2	45.0885	206.097
70	0.12589	11408.1	12950.2	17258.4	48.6227	215.294
71	0.1	12014.4	15537.6	19640.9	52.2871	226.131