File: data/Z_s7_1.5.txt
Index	Frequency (Hz)	Z' (Ω)	-Z'' (Ω)	Z (Ω)	-Phase (°)	Time (s)
1	1000000	2870.52	2273.3	3661.67	38.3773	14.7954
2	794330	3247.12	2116.62	3876.06	33.0981	16.5474
3	630960	3651.17	2004.77	4165.35	28.7702	18.2095
4	501190	4055.23	1896.86	4476.94	25.0682	20.2115
5	398110	4468.5	1741.27	4795.78	21.2897	21.8385
6	316230	4772.21	1609.03	5036.17	18.6324	23.6756
7	251190	4940.7	1410.22	5138.02	15.9302	25.2426
8	199530	5181.03	1284.53	5337.89	13.9246	27.1046
9	158490	5381.54	1154.55	5504	12.1086	28.7167
10	125890	5545.08	1025.15	5639.05	10.4743	30.5087
11	100000	5677.89	902.814	5749.22	9.03469	32.1257
12	79433	5788.4	790.386	5842.11	7.77546	33.9378
13	63096	5876.46	688.077	5916.61	6.67837	35.5998
14	50119	5949.95	596.399	5979.76	5.72398	37.3868
15	39811	6010.83	514.664	6032.82	4.89389	39.1339
16	31623	6056.53	443.426	6072.74	4.18741	40.8709
17	25119	6095.54	386.747	6107.8	3.63041	42.5779
18	19953	6132.01	337.315	6141.28	3.1486	44.2499
19	15849	6158.23	295.242	6165.3	2.74481	45.947
20	12589	6186.1	260.457	6191.58	2.41094	47.459
21	10000	6208.9	231.554	6213.22	2.13579	49.301
22	7943.3	6229.85	207.775	6233.32	1.91019	50.8031
23	6309.6	6243.6	188.196	6246.44	1.7265	52.6101
24	5011.9	6261.44	172.343	6263.82	1.57664	54.1321
25	3981.1	6280.84	159.647	6282.87	1.45603	55.8892
26	3162.3	6295.32	150.391	6297.12	1.3685	57.5362
27	2511.9	6312.04	142.423	6313.65	1.29258	59.3032
28	1995.3	6321.67	137.082	6323.16	1.24223	61.2003
29	1584.9	6336.56	133.82	6337.97	1.20983	62.6823
30	1258.9	6352.71	132.471	6354.09	1.1946	64.0643
31	1000	6369.88	133.309	6371.27	1.19891	65.5313
32	794.33	6383.25	135.701	6384.69	1.21786	67.1534
33	630.96	6398.07	139.631	6399.59	1.25022	68.5754
34	501.19	6414.11	146.155	6415.77	1.30534	71.3874
35	398.11	6429.9	153.04	6431.72	1.36345	73.8145
36	316.23	6450.55	162.879	6452.6	1.44643	75.8365
37	251.19	6468.96	174.691	6471.32	1.54687	77.6336
38	199.53	6487.79	187.941	6490.51	1.65931	79.0706
39	158.49	6512.79	202.719	6515.95	1.78283	80.4826
40	125.89	6535.99	218.55	6539.64	1.91514	82.1996
41	100	6560.02	239.654	6564.4	2.09223	83.7167
42	79.433	6586.22	259.87	6591.35	2.25953	85.2587
43	63.096	6611.91	284.649	6618.03	2.46511	86.9207
44	50.119	6646.69	313.984	6654.1	2.7046	89.1678
45	39.811	6688.61	344.797	6697.49	2.95098	90.9648
46	31.623	6729.82	378.554	6740.46	3.2195	92.6918
47	25.119	6776.44	420.251	6789.46	3.54873	94.3889
48	19.953	6824.66	470.44	6840.86	3.94329	97.4309
49	15.849	6874.94	524.997	6894.96	4.36685	99.493
50	12.589	6937.15	588.168	6962.04	4.84625	101.565
51	10	6997.86	657.463	7028.68	5.3673	104.017
52	7.9433	7064.37	740.112	7103.03	5.98088	106.379
53	6.3096	7141.75	838.467	7190.8	6.69608	108.771
54	5.0119	7224.45	951.004	7286.78	7.49912	111.223
55	3.9811	7317.39	1081.94	7396.94	8.41073	113.88
56	3.1623	7415.14	1242.73	7518.56	9.51401	116.517
57	2.5119	7528.32	1428.95	7662.74	10.7474	119.419
58	1.9953	7644.21	1649.88	7820.23	12.1796	122.576
59	1.5849	7788.09	1914.7	8020	13.8122	125.868
60	1.2589	7931.46	2228.98	8238.72	15.697	129.236
61	1	8109.75	2612.39	8520.13	17.8553	134.715
62	0.79433	8320.61	3069.96	8868.89	20.252	138.107
63	0.63096	8533.8	3615.69	9268.17	22.9619	142.094
64	0.50119	8756.04	4287.34	9749.34	26.0884	146.186
65	0.39811	9032.33	5060.08	10353.1	29.2583	150.743
66	0.31623	9386.27	6041.09	11162.3	32.7657	156.055
67	0.25119	9704.4	7240.89	12108.1	36.7283	161.942
68	0.19953	10175.7	8625.71	13339.7	40.2871	168.429
69	0.15849	10709.5	10335.5	14883.4	43.9818	176.121
70	0.12589	11206.1	12470	16765.4	48.0555	184.929
71	0.1	11967.2	15111.8	19276.4	51.6239	195.611