File: data/Z_s8_1.4.txt
Index	Frequency (Hz)	Z' (Ω)	-Z'' (Ω)	Z (Ω)	-Phase (°)	Time (s)
1	1000000	2339.69	1432.13	2743.2	31.4709	20.5195
2	794330	2551.04	1301.41	2863.82	27.0284	22.3515
3	630960	2759.78	1226.05	3019.87	23.9534	24.3086
4	501190	2983.39	1133.22	3191.36	20.7989	26.1806
5	398110	3198.78	1013.78	3355.58	17.5848	28.2527
6	316230	3374.03	923.85	3498.22	15.313	30.1997
7	251190	3452.16	793.814	3542.25	12.9499	32.1717
8	199530	3588.65	715.362	3659.25	11.2736	34.0938
9	158490	3697.19	634.781	3751.29	9.74228	36.0508
10	125890	3785.98	558.294	3826.93	8.38858	37.9828
11	100000	3854.72	486.887	3885.34	7.19888	40.0499
12	79433	3911.76	423.133	3934.58	6.17365	42.4369
13	63096	3955.5	366.029	3972.4	5.28691	44.2689
14	50119	3992.91	316.343	4005.42	4.52987	46.196
15	39811	4023.98	272.967	4033.22	3.88072	48.348
16	31623	4046.58	236.069	4053.46	3.33874	50.1901
17	25119	4066.53	206.844	4071.79	2.91184	52.1721
18	19953	4084.93	181.853	4088.98	2.54901	54.1191
19	15849	4100.63	160.895	4103.78	2.24695	56.0262
20	12589	4116.21	144.13	4118.74	2.0054	58.1832
21	10000	4128.11	130.29	4130.16	1.80775	60.1402
22	7943.3	4138.06	119.235	4139.78	1.65048	61.9673
23	6309.6	4150.88	110.711	4152.36	1.52782	63.8443
24	5011.9	4163.19	104.144	4164.5	1.43298	65.5763
25	3981.1	4172.99	99.223	4174.17	1.36209	67.2834
26	3162.3	4182.38	95.9624	4183.48	1.31439	68.8554
27	2511.9	4192.73	94.2408	4193.79	1.28763	70.7674
28	1995.3	4203.39	93.8258	4204.44	1.27871	72.3995
29	1584.9	4211.76	95.304	4212.84	1.29627	74.1665
30	1258.9	4221.31	98.008	4222.45	1.33002	75.8035
31	1000	4231.66	102.692	4232.91	1.39015	77.4856
32	794.33	4244.68	109.381	4246.09	1.47613	79.4076
33	630.96	4255.48	117.87	4257.11	1.58659	81.0846
34	501.19	4268.47	128.794	4270.41	1.72828	82.8217
35	398.11	4280.42	142.034	4282.77	1.90051	84.3837
36	316.23	4297.7	158.343	4300.62	2.11003	86.3857
37	251.19	4316.77	177.234	4320.4	2.35107	88.0228
38	199.53	4336.39	198.881	4340.95	2.62594	89.9748
39	158.49	4361.63	224.231	4367.39	2.94299	91.8868
40	125.89	4385.39	251.57	4392.6	3.2832	93.9239
41	100	4418.62	282.655	4427.65	3.66017	96.1709
42	79.433	4454.58	316.641	4465.82	4.06586	98.3579
43	63.096	4499.83	354.726	4513.79	4.50736	100.64
44	50.119	4542.75	393.656	4559.78	4.95264	102.652
45	39.811	4598.07	434.642	4618.57	5.39995	104.649
46	31.623	4656.89	479.524	4681.52	5.87907	106.706
47	25.119	4720.16	526.594	4749.44	6.36576	108.848
48	19.953	4788.23	580.087	4823.24	6.90763	111.765
49	15.849	4859.2	638.142	4900.92	7.48165	114.532
50	12.589	4936.43	700.637	4985.9	8.07815	117.129
51	10	5015.37	774.313	5074.79	8.77649	119.966
52	7.9433	5102.76	859.991	5174.72	9.56642	123.068
53	6.3096	5196.41	958.405	5284.05	10.45	126.19
54	5.0119	5294.89	1074.03	5402.72	11.4664	129.273
55	3.9811	5399.27	1211.93	5533.61	12.6511	132.62
56	3.1623	5512.08	1375.18	5681.04	14.0084	135.877
57	2.5119	5634.97	1571.79	5850.08	15.5857	141.239
58	1.9953	5770.51	1806.91	6046.8	17.3868	144.706
59	1.5849	5912.34	2090.8	6271.15	19.4753	148.233
60	1.2589	6075.33	2430.33	6543.4	21.803	151.735
61	1	6248.45	2844.1	6865.28	24.4735	155.492
62	0.79433	6448.25	3347.3	7265.29	27.4339	159.269
63	0.63096	6681.72	3952.86	7763.4	30.6083	163.356
64	0.50119	6914.27	4701.76	8361.44	34.216	167.718
65	0.39811	7204.05	5608.11	9129.57	37.8995	172.74
66	0.31623	7504.65	6715.69	10070.8	41.8244	178.227
67	0.25119	7868.38	8078.22	11276.9	45.7539	184.725
68	0.19953	8373.55	9717.03	12827.2	49.2472	191.657
69	0.15849	8884.37	11777.2	14752.4	52.9701	199.879
70	0.12589	9462.62	14242.6	17099.5	56.4004	209.711
71	0.1	10235.1	17252.6	20060.1	59.3216	221.088