File: data/Z_s8_1.5.txt
Index	Frequency (Hz)	Z' (Ω)	-Z'' (Ω)	Z (Ω)	-Phase (°)	Time (s)
1	1000000	2363.71	1598.82	2853.65	34.0745	15.9504
2	794330	2601.77	1474.53	2990.56	29.5421	17.9975
3	630960	2867.57	1380.05	3182.37	25.6997	19.9045
4	501190	3124.76	1288.36	3379.94	22.4066	21.9765
5	398110	3385.87	1153.6	3576.99	18.8145	23.8736
6	316230	3582.23	1051.48	3733.36	16.3583	25.9706
7	251190	3678.16	907.121	3788.37	13.854	27.9426
8	199530	3831.56	816.359	3917.56	12.0277	29.9597
9	158490	3954.57	724.552	4020.4	10.3825	31.7217
10	125890	4053.5	635.968	4103.08	8.91665	33.6088
11	100000	4130.93	554.432	4167.97	7.64427	35.3208
12	79433	4194.28	481.055	4221.78	6.54284	37.4128
13	63096	4245.48	415.841	4265.8	5.59422	39.2549
14	50119	4288.87	359.365	4303.9	4.78964	41.3369
15	39811	4320.94	309.425	4332	4.09599	43.2239
16	31623	4346.47	267.097	4354.67	3.51649	45.111
17	25119	4370.36	233.655	4376.6	3.06032	46.973
18	19953	4390.87	204.548	4395.64	2.66718	48.905
19	15849	4408.94	180.967	4412.65	2.35041	50.8671
20	12589	4424.44	161.021	4427.37	2.08427	52.8191
21	10000	4439.01	145.307	4441.38	1.87486	54.9911
22	7943.3	4451.35	132.305	4453.31	1.70247	57.5182
23	6309.6	4464.17	122.128	4465.84	1.56708	59.0352
24	5011.9	4475.97	114.323	4477.42	1.46311	60.5423
25	3981.1	4487.9	108.199	4489.21	1.38107	61.9093
26	3162.3	4498.88	104.099	4500.08	1.32553	63.3213
27	2511.9	4508.55	101.385	4509.69	1.28821	65.7983
28	1995.3	4520.23	100.691	4521.35	1.27609	67.3354
29	1584.9	4532.05	101.119	4533.18	1.27816	68.7324
30	1258.9	4542.14	104.009	4543.33	1.31177	70.0094
31	1000	4551.34	107.604	4552.61	1.35435	71.4315
32	794.33	4562.98	113.853	4564.4	1.42932	73.0385
33	630.96	4577.01	122.031	4578.64	1.52724	74.4755
34	501.19	4589.46	132.817	4591.39	1.65765	76.9076
35	398.11	4602.8	146.193	4605.12	1.8192	78.3146
36	316.23	4619.54	162.014	4622.38	2.00862	79.7866
37	251.19	4639.88	181.891	4643.44	2.24494	81.5286
38	199.53	4658.87	203.361	4663.31	2.49939	82.9057
39	158.49	4682.3	228.761	4687.88	2.79705	84.7827
40	125.89	4708.49	257.095	4715.5	3.12539	86.2497
41	100	4738.04	288.944	4746.84	3.4898	87.6618
42	79.433	4775.22	324.706	4786.25	3.89002	89.1088
43	63.096	4820.17	365.808	4834.03	4.33992	90.5558
44	50.119	4873.1	404.036	4889.82	4.73964	92.5778
45	39.811	4923.83	448.573	4944.22	5.20543	94.6099
46	31.623	4984.54	493.407	5008.9	5.65315	96.7169
47	25.119	5049.53	546.344	5079	6.17521	99.989
48	19.953	5118.87	601.301	5154.07	6.69969	103.141
49	15.849	5195.84	660.433	5237.64	7.24391	105.608
50	12.589	5276.84	727.31	5326.72	7.84767	108.055
51	10	5361.95	801.982	5421.6	8.50662	110.692
52	7.9433	5452.35	890.135	5524.53	9.27215	113.544
53	6.3096	5550.14	990.728	5637.87	10.121	116.366
54	5.0119	5650.51	1107.13	5757.95	11.0857	119.113
55	3.9811	5759.81	1246.65	5893.18	12.2127	121.905
56	3.1623	5878.74	1413.71	6046.34	13.5216	124.927
57	2.5119	6005.11	1612.44	6217.82	15.03	128.009
58	1.9953	6144.3	1849.02	6416.48	16.7482	131.167
59	1.5849	6292.32	2136.57	6645.17	18.755	134.329
60	1.2589	6465.38	2484.95	6926.48	21.0241	137.546
61	1	6647.52	2901.58	7253.18	23.5808	140.993
62	0.79433	6852.88	3410.88	7654.81	26.4609	144.47
63	0.63096	7079.71	4025.23	8144.01	29.6208	148.402
64	0.50119	7315.98	4767.34	8732.19	33.0896	152.599
65	0.39811	7618.05	5673.26	9498.45	36.6755	157.136
66	0.31623	7939.05	6788.57	10445.7	40.5333	162.073
67	0.25119	8315.81	8192.77	11673.7	44.573	167.82
68	0.19953	8733.77	9820.14	13142.1	48.351	174.487
69	0.15849	9285.26	11842	15048.3	51.9002	182.265
70	0.12589	9855.02	14390.3	17441.4	55.5952	191.047
71	0.1	10672.8	17431.4	20439.2	58.5219	201.574