File: data/Z_s8_1.3.txt
Index	Frequency (Hz)	Z' (Ω)	-Z'' (Ω)	Z (Ω)	-Phase (°)	Time (s)
1	1000000	2296.48	1450.6	2716.26	32.279	15.4864
2	794330	2497.72	1349.03	2838.75	28.3738	17.3634
3	630960	2729.39	1244.03	2999.53	24.5031	19.2955
4	501190	2956.68	1161.29	3176.56	21.4433	20.9525
5	398110	3185.18	1033.7	3348.72	17.98	22.7645
6	316230	3359.37	942.379	3489.04	15.67	24.4866
7	251190	3443.93	812.042	3538.37	13.2674	26.2886
8	199530	3581.83	731.739	3655.81	11.5462	28.0406
9	158490	3694.5	650.069	3751.26	9.97936	29.8377
10	125890	3780.98	571.037	3823.86	8.5884	31.4197
11	100000	3852.99	498.441	3885.1	7.37111	33.2067
12	79433	3909.86	432.892	3933.75	6.31794	34.7688
13	63096	3955.62	374.592	3973.32	5.4097	36.5108
14	50119	3992.12	323.515	4005.21	4.63303	38.1178
15	39811	4024.93	279.072	4034.59	3.9663	39.8899
16	31623	4045.94	240.997	4053.11	3.40881	41.5469
17	25119	4068.34	210.961	4073.81	2.96837	43.2739
18	19953	4084.74	185.277	4088.94	2.59705	44.906
19	15849	4103.19	164.122	4106.47	2.29053	46.638
20	12589	4116.44	146.775	4119.05	2.04206	48.32
21	10000	4127.03	132.627	4129.16	1.84063	50.0871
22	7943.3	4139.8	121.449	4141.58	1.6804	51.8491
23	6309.6	4151.63	112.539	4153.15	1.55275	53.6111
24	5011.9	4162.99	105.863	4164.33	1.45669	55.3032
25	3981.1	4173.36	100.852	4174.58	1.38432	57.0002
26	3162.3	4182.82	97.4934	4183.95	1.33521	58.6522
27	2511.9	4193.1	95.9513	4194.2	1.31088	60.2392
28	1995.3	4202.69	95.7054	4203.78	1.30454	61.9313
29	1584.9	4213.67	97.0877	4214.78	1.31993	63.5733
30	1258.9	4221.81	100.656	4223.01	1.36578	65.7553
31	1000	4234.05	105.22	4235.35	1.42356	67.4424
32	794.33	4246.31	111.868	4247.78	1.50909	69.3544
33	630.96	4256.32	120.794	4258.03	1.62562	71.0014
34	501.19	4270.71	132.177	4272.76	1.77272	72.6335
35	398.11	4284.79	146.059	4287.28	1.95233	74.3055
36	316.23	4299.84	162.855	4302.92	2.16902	75.9075
37	251.19	4317.02	182.168	4320.86	2.41631	77.5446
38	199.53	4337.18	204.435	4342	2.69866	79.2616
39	158.49	4362.87	230.315	4368.94	3.02183	80.7486
40	125.89	4391.8	259.266	4399.45	3.37848	82.5807
41	100	4424.36	290.066	4433.86	3.751	84.1777
42	79.433	4460.94	325.451	4472.8	4.17266	86.0397
43	63.096	4502.72	362.655	4517.3	4.60473	87.8068
44	50.119	4555.27	404.187	4573.17	5.07054	89.8588
45	39.811	4606.6	444.103	4627.95	5.50663	91.6558
46	31.623	4669.37	488.948	4694.9	5.97788	93.7829
47	25.119	4733.43	537.714	4763.88	6.48096	95.6199
48	19.953	4801.69	591.978	4838.04	7.02827	97.9119
49	15.849	4873.97	651.052	4917.27	7.60837	100.289
50	12.589	4952.27	713.909	5003.47	8.20312	102.666
51	10	5036.73	788.791	5098.12	8.90066	105.398
52	7.9433	5122.38	874.409	5196.48	9.68723	108.2
53	6.3096	5215.85	974.349	5306.08	10.5812	110.882
54	5.0119	5315.07	1091.98	5426.08	11.6098	113.449
55	3.9811	5421.49	1232.84	5559.9	12.8111	116.276
56	3.1623	5538	1399.49	5712.09	14.1822	119.333
57	2.5119	5659.32	1597.44	5880.45	15.7626	122.525
58	1.9953	5794.94	1836.23	6078.9	17.5817	125.372
59	1.5849	5949.64	2126.82	6318.35	19.6705	128.375
60	1.2589	6109.29	2475.29	6591.7	22.0562	131.642
61	1	6280.5	2894.93	6915.58	24.7468	135.264
62	0.79433	6496.03	3413.44	7338.25	27.7204	138.646
63	0.63096	6715.88	4028.44	7831.44	30.9569	142.718
64	0.50119	6966.21	4768.13	8441.75	34.3903	146.995
65	0.39811	7245.26	5714.51	9227.64	38.2637	151.607
66	0.31623	7566.88	6850.2	10207	42.1542	156.809
67	0.25119	7980.8	8189.81	11435.3	45.7405	162.481
68	0.19953	8452.18	9905.7	13021.6	49.5271	168.943
69	0.15849	8995.23	11960.8	14965.8	53.0547	176.55
70	0.12589	9631.82	14380.8	17308.3	56.187	185.423
71	0.1	10254	17450.2	20239.9	59.561	195.96