File: data/Z_s8_1.txt
Index	Frequency (Hz)	Z' (Ω)	-Z'' (Ω)	Z (Ω)	-Phase (°)	Time (s)
1	1000000	2158.7	1283.32	2511.35	30.731	88.0208
2	794330	2323.05	1181.47	2606.23	26.9573	91.4128
3	630960	2522.44	1104.02	2753.47	23.638	93.7399
4	501190	2720.84	1025.16	2907.57	20.6455	95.9669
5	398110	2912.05	922.281	3054.61	17.5736	98.544
6	316230	3066.77	847.667	3181.76	15.451	100.386
7	251190	3143.59	737.891	3229.03	13.2098	102.188
8	199530	3274.21	672.593	3342.58	11.6083	104.015
9	158490	3378.14	603.281	3431.58	10.1254	106.057
10	125890	3465.57	535.024	3506.62	8.77619	107.904
11	100000	3536.1	470.055	3567.2	7.57196	110.801
12	79433	3592.26	410.08	3615.59	6.51249	112.708
13	63096	3640.08	355.977	3657.45	5.5854	114.76
14	50119	3676.15	307.811	3689.01	4.78632	116.722
15	39811	3708.28	265.549	3717.78	4.09594	118.569
16	31623	3732.56	229.365	3739.6	3.51639	120.731
17	25119	3751.71	200.428	3757.06	3.05801	122.538
18	19953	3768.14	176.072	3772.25	2.67529	124.7
19	15849	3785.33	155.953	3788.54	2.35921	126.347
20	12589	3798.24	139.929	3800.82	2.10986	128.265
21	10000	3810.81	127.08	3812.93	1.90995	130.027
22	7943.3	3823.27	117.078	3825.06	1.75399	131.959
23	6309.6	3832.65	109.517	3834.21	1.63677	133.736
24	5011.9	3843.95	104.192	3845.36	1.55264	135.758
25	3981.1	3855.04	100.802	3856.36	1.49783	137.61
26	3162.3	3865.61	99.1584	3866.88	1.4694	139.442
27	2511.9	3875	98.9396	3876.26	1.4626	141.449
28	1995.3	3887.52	100.838	3888.83	1.48585	143.171
29	1584.9	3897.48	104.114	3898.87	1.53019	144.883
30	1258.9	3908.11	109.384	3909.64	1.60324	146.52
31	1000	3922.68	116.371	3924.4	1.69925	148.057
32	794.33	3934.2	125.337	3936.2	1.82473	149.929
33	630.96	3949.23	136.794	3951.6	1.98382	151.561
34	501.19	3965.05	150.503	3967.9	2.17375	153.448
35	398.11	3980.21	167.675	3983.74	2.41229	155.105
36	316.23	4002.24	187.022	4006.61	2.67545	156.997
37	251.19	4026.01	209.912	4031.48	2.98464	158.794
38	199.53	4051.81	235.003	4058.62	3.3194	160.731
39	158.49	4079.03	263.277	4087.51	3.69298	162.878
40	125.89	4113.62	294.526	4124.15	4.09525	165.055
41	100	4152.24	328.462	4165.21	4.52296	166.937
42	79.433	4198.88	364.828	4214.7	4.96578	169.114
43	63.096	4248.01	402.234	4267.01	5.40907	171.501
44	50.119	4303.84	444.111	4326.69	5.89147	173.523
45	39.811	4365.91	488.298	4393.13	6.38163	175.455
46	31.623	4430.62	533.889	4462.67	6.871	177.797
47	25.119	4500.68	584.516	4538.47	7.39975	180.184
48	19.953	4571.69	641.15	4616.43	7.98329	182.617
49	15.849	4652.47	703.213	4705.32	8.5951	185.124
50	12.589	4737.02	774.381	4799.9	9.28425	187.631
51	10	4822.59	854.796	4897.76	10.0512	190.768
52	7.9433	4918.85	950.741	5009.89	10.9395	193.54
53	6.3096	5017.93	1062.17	5129.12	11.9517	196.397
54	5.0119	5125.41	1195.68	5263.03	13.1314	199.449
55	3.9811	5240.28	1354.92	5412.61	14.4968	202.626
56	3.1623	5363.61	1542.84	5581.09	16.0478	205.858
57	2.5119	5500.7	1771.27	5778.85	17.8489	209.295
58	1.9953	5647.98	2042.67	6006.01	19.8832	213.202
59	1.5849	5809.41	2369.59	6274.09	22.1899	216.464
60	1.2589	5989.08	2764.55	6596.35	24.7779	220.341
61	1	6194.59	3244.36	6992.77	27.6429	224.518
62	0.79433	6424.24	3825.43	7476.95	30.7725	228.315
63	0.63096	6689.63	4523.15	8075.27	34.0643	232.292
64	0.50119	6979.24	5384.57	8814.95	37.6506	236.6
65	0.39811	7295.23	6411.65	9712.35	41.3117	242.152
66	0.31623	7707.12	7685.42	10884.2	44.9193	247.694
67	0.25119	8147.78	9206.63	12294.2	48.4915	253.886
68	0.19953	8680.43	11122.6	14109	52.0305	260.863
69	0.15849	9271.51	13394.6	16290.3	55.3096	268.945
70	0.12589	10055.3	16254.1	19112.9	58.2578	278.162
71	0.1	11019.3	19575.6	22464	60.6245	288.814