File: data/Z_s8_1.2.txt
Index	Frequency (Hz)	Z' (Ω)	-Z'' (Ω)	Z (Ω)	-Phase (°)	Time (s)
1	1000000	2230.95	1382.63	2624.65	31.7886	46.612
2	794330	2440.78	1343.25	2785.98	28.8257	48.339
3	630960	2645.7	1177.32	2895.83	23.9888	49.941
4	501190	2860.29	1089.22	3060.66	20.8472	51.5381
5	398110	3067.97	974.862	3219.13	17.6279	53.7801
6	316230	3230.87	888.424	3350.79	15.3752	55.2021
7	251190	3307.29	764.68	3394.54	13.0186	61.2592
8	199530	3438.47	689.875	3506.99	11.3449	62.9063
9	158490	3544.45	613.481	3597.15	9.81959	64.3433
10	125890	3626.88	539.428	3666.77	8.45962	65.9753
11	100000	3695.68	471.08	3725.58	7.2642	67.4874
12	79433	3751	409.911	3773.33	6.23657	69.0244
13	63096	3794.1	354.744	3810.65	5.34157	70.4314
14	50119	3829.8	306.527	3842.05	4.57604	71.8634
15	39811	3861.22	264.613	3870.28	3.9204	73.6555
16	31623	3882.27	228.778	3889	3.37248	75.1675
17	25119	3902.38	200.17	3907.51	2.93638	76.7245
18	19953	3920.64	176.178	3924.59	2.57292	78.1766
19	15849	3934.5	155.798	3937.59	2.26761	80.0036
20	12589	3947.99	139.686	3950.46	2.02637	82.4956
21	10000	3960.08	126.385	3962.1	1.82796	86.2577
22	7943.3	3972.42	116.107	3974.11	1.67418	88.7198
23	6309.6	3984.17	107.925	3985.63	1.55168	90.0818
24	5011.9	3993.75	101.972	3995.05	1.46261	92.0588
25	3981.1	4004.7	97.6801	4005.89	1.39725	93.7408
26	3162.3	4014.41	94.82	4015.53	1.35307	95.8879
27	2511.9	4025.52	93.5897	4026.61	1.33183	98.0749
28	1995.3	4035.59	94.2781	4036.69	1.33828	100.062
29	1584.9	4044.64	96.1447	4045.79	1.36171	101.894
30	1258.9	4054.73	99.3662	4055.94	1.40382	104.071
31	1000	4063.7	104.982	4065.06	1.47986	106.348
32	794.33	4077.09	112.428	4078.64	1.57957	108.44
33	630.96	4090.07	121.745	4091.88	1.70496	110.617
34	501.19	4103.05	133.31	4105.21	1.86091	113.229
35	398.11	4118.09	148.025	4120.75	2.05861	115.256
36	316.23	4135.12	165.062	4138.42	2.28587	117.053
37	251.19	4153.19	184.814	4157.3	2.54793	119.2
38	199.53	4176.14	207.597	4181.3	2.84584	120.742
39	158.49	4200.06	233.396	4206.54	3.18064	122.554
40	125.89	4229.41	262.027	4237.51	3.54515	124.436
41	100	4264.28	293.407	4274.36	3.93607	126.458
42	79.433	4302.22	328.025	4314.71	4.3601	128.06
43	63.096	4347.79	365.136	4363.1	4.80054	130.053
44	50.119	4399.51	404.017	4418.02	5.24689	132.165
45	39.811	4452.71	445.695	4474.96	5.716	134.282
46	31.623	4511.87	489.325	4538.32	6.1897	136.809
47	25.119	4576.2	537.753	4607.69	6.70214	138.856
48	19.953	4645.85	590.608	4683.24	7.24492	141.543
49	15.849	4718.41	648.15	4762.72	7.82155	144.405
50	12.589	4797.8	713.606	4850.58	8.45992	146.927
51	10	4880.36	786.927	4943.39	9.15975	149.984
52	7.9433	4965.7	873.111	5041.88	9.97228	152.831
53	6.3096	5059.16	975.461	5152.34	10.9133	155.898
54	5.0119	5156.03	1093.44	5270.69	11.9733	158.765
55	3.9811	5263.77	1235.88	5406.91	13.2131	161.812
56	3.1623	5378.02	1404.96	5558.51	14.6408	164.809
57	2.5119	5502.5	1607.83	5732.59	16.2884	167.796
58	1.9953	5638.92	1851.87	5935.22	18.1806	170.983
59	1.5849	5785.95	2141.97	6169.71	20.3147	174.205
60	1.2589	5948.93	2498.11	6452.16	22.7788	177.597
61	1	6127.66	2923.27	6789.24	25.504	181.649
62	0.79433	6335.2	3442.83	7210.26	28.5216	185.127
63	0.63096	6572.61	4068.81	7730.1	31.7598	189.274
64	0.50119	6824.48	4846.42	8370.26	35.3806	193.501
65	0.39811	7107.01	5763.53	9150.3	39.0408	198.133
66	0.31623	7463.52	6912.62	10172.9	42.8055	203.45
67	0.25119	7828.6	8341.53	11439.8	46.8169	209.062
68	0.19953	8288.19	9998.41	12987	50.343	215.619
69	0.15849	8837.92	12063	14954.1	53.7716	223.286
70	0.12589	9480.13	14572.9	17385.1	56.9547	232.863
71	0.1	10202.8	17725.7	20452.3	60.0756	244.276