File: data/Z_s9_1.4.txt
Index	Frequency (Hz)	Z' (Ω)	-Z'' (Ω)	Z (Ω)	-Phase (°)	Time (s)
1	1000000	2757.25	1888.47	3341.96	34.4077	22.3535
2	794330	3028.45	1725.05	3485.3	29.6665	24.2506
3	630960	3340.53	1616.54	3711.11	25.8232	26.0426
4	501190	3645.27	1502.78	3942.88	22.4042	27.9846
5	398110	3959.49	1359.55	4186.4	18.9506	29.7217
6	316230	4189.98	1246.7	4371.52	16.57	31.4987
7	251190	4309.35	1079.17	4442.42	14.0592	33.1407
8	199530	4493.97	979.236	4599.42	12.2926	35.1378
9	158490	4642.62	876.407	4724.62	10.6902	36.8598
10	125890	4764.28	776.917	4827.21	9.26177	38.8018
11	100000	4861.59	683.811	4909.45	8.00646	40.4239
12	79433	4946.19	599.979	4982.44	6.91626	42.4009
13	63096	5009.85	523.889	5037.17	5.96982	44.1779
14	50119	5067.37	457.053	5087.94	5.15386	46.045
15	39811	5113.6	397.408	5129.02	4.44386	47.792
16	31623	5150.47	345.977	5162.07	3.84301	49.639
17	25119	5181.04	304.673	5189.99	3.36543	51.3661
18	19953	5210.29	269.268	5217.25	2.95841	53.2131
19	15849	5235.9	239.168	5241.36	2.61537	55.0501
20	12589	5257.94	214.519	5262.31	2.33632	57.0222
21	10000	5275.43	194.075	5278.99	2.10688	58.8642
22	7943.3	5297.1	177.75	5300.08	1.9219	60.7962
23	6309.6	5315.85	164.473	5318.39	1.77217	62.3433
24	5011.9	5329.6	153.913	5331.82	1.65418	64.1753
25	3981.1	5346.7	145.927	5348.69	1.56338	65.7673
26	3162.3	5361.04	139.912	5362.87	1.49496	67.6444
27	2511.9	5376.76	136.463	5378.5	1.45386	69.3264
28	1995.3	5391.88	134.753	5393.56	1.43163	71.4384
29	1584.9	5406.12	135.196	5407.81	1.43255	73.0505
30	1258.9	5423.73	137.435	5425.48	1.45154	74.8075
31	1000	5437.89	140.829	5439.71	1.4835	76.3945
32	794.33	5455.85	146.744	5457.82	1.5407	78.1166
33	630.96	5473.47	154.943	5475.66	1.6215	79.8386
34	501.19	5491.94	164.975	5494.42	1.72062	81.6856
35	398.11	5510.36	177.598	5513.22	1.846	83.5077
36	316.23	5532.4	192.054	5535.74	1.98818	85.0647
37	251.19	5553.58	209.091	5557.51	2.15615	86.8867
38	199.53	5580.12	228.83	5584.81	2.34828	88.5488
39	158.49	5611.68	251.094	5617.3	2.56198	90.2958
40	125.89	5639.84	275.48	5646.56	2.79641	91.9478
41	100	5675.71	302.199	5683.75	3.04779	94.2849
42	79.433	5715.29	332.949	5724.98	3.33405	96.3119
43	63.096	5760.77	366.57	5772.42	3.64094	98.2939
44	50.119	5809.69	401.945	5823.58	3.95771	100.616
45	39.811	5862.66	439.846	5879.13	4.29058	102.573
46	31.623	5916.48	480.216	5935.94	4.64029	104.815
47	25.119	5980.55	529.31	6003.92	5.0578	106.752
48	19.953	6042.47	582.918	6070.52	5.51028	110.069
49	15.849	6120.49	640.277	6153.89	5.97211	112.336
50	12.589	6199.81	707.223	6240.02	6.5077	114.823
51	10	6278.25	781.679	6326.72	7.09714	117.475
52	7.9433	6369.11	867.015	6427.85	7.75192	120.477
53	6.3096	6472.22	966.486	6543.98	8.49313	123.554
54	5.0119	6570.29	1081.09	6658.64	9.34384	126.616
55	3.9811	6686.4	1215.6	6796	10.3039	129.354
56	3.1623	6812.31	1374.23	6949.54	11.4051	132.361
57	2.5119	6943.84	1561.61	7117.27	12.6744	135.503
58	1.9953	7096.15	1773.26	7314.35	14.0303	138.72
59	1.5849	7262.19	2038.59	7542.89	15.6802	142.037
60	1.2589	7449.79	2335.5	7807.3	17.4061	145.584
61	1	7647.94	2704.41	8112.02	19.4743	149.281
62	0.79433	7872.93	3140.94	8476.35	21.7497	153.183
63	0.63096	8123.08	3661.4	8910.12	24.263	156.92
64	0.50119	8388.38	4264.65	9410.21	26.9488	161.242
65	0.39811	8703.86	5048.53	10062.1	30.1151	166.049
66	0.31623	9020.61	5954.04	10808.4	33.4267	171.446
67	0.25119	9464.71	7118.08	11842.6	36.9456	177.318
68	0.19953	9880.83	8401.48	12969.8	40.3739	184.131
69	0.15849	10443.2	10004.8	14462.2	43.772	192.033
70	0.12589	10989.3	12005.9	16275.9	47.5313	201.045
71	0.1	11729.2	14541.1	18682	51.1096	211.882