File: data/Z_s9_1.5.txt
Index	Frequency (Hz)	Z' (Ω)	-Z'' (Ω)	Z (Ω)	-Phase (°)	Time (s)
1	1000000	2801.24	2116.91	3511.16	37.0784	27.5036
2	794330	3136.68	1966.1	3701.93	32.0799	29.0507
3	630960	3526.61	1843.32	3979.3	27.5955	30.8227
4	501190	3866.56	1732.56	4236.99	24.1367	32.3847
5	398110	4247.08	1572.14	4528.72	20.313	34.4268
6	316230	4517.89	1442.36	4742.54	17.7059	35.9888
7	251190	4660.73	1258.88	4827.75	15.1152	38.4278
8	199530	4872.97	1143.3	5005.3	13.204	39.8549
9	158490	5044.95	1027.38	5148.5	11.5106	41.8769
10	125890	5190.91	911.79	5270.38	9.96244	43.2189
11	100000	5305.94	802.708	5366.32	8.60274	44.781
12	79433	5404.51	704.555	5450.24	7.42743	46.108
13	63096	5483.41	615.047	5517.79	6.39984	47.59
14	50119	5545.38	535.322	5571.16	5.51394	48.982
15	39811	5601.16	464.907	5620.42	4.74478	50.4391
16	31623	5642.31	404.423	5656.78	4.09977	51.9461
17	25119	5679.48	354.318	5690.52	3.56981	53.4431
18	19953	5711.45	311.676	5719.94	3.12356	54.8551
19	15849	5739.15	275.812	5745.77	2.75141	56.2322
20	12589	5765.18	246.112	5770.43	2.44444	57.7192
21	10000	5785.54	221.443	5789.78	2.19194	59.1712
22	7943.3	5808.08	200.95	5811.56	1.98155	60.7483
23	6309.6	5827.87	184.544	5830.79	1.81371	62.4203
24	5011.9	5842.73	171.303	5845.24	1.67938	64.0073
25	3981.1	5860.53	160.863	5862.73	1.57229	65.5443
26	3162.3	5875.77	153.024	5877.76	1.49183	66.9364
27	2511.9	5893.72	148.018	5895.58	1.43865	68.4684
28	1995.3	5905.89	144.428	5907.65	1.40089	69.8904
29	1584.9	5923.44	142.67	5925.15	1.37974	71.2724
30	1258.9	5936.68	142.843	5938.4	1.37833	72.5045
31	1000	5954.21	146.121	5956.01	1.4058	74.0465
32	794.33	5972.33	150.973	5974.24	1.44806	75.9785
33	630.96	5987.07	157.975	5989.15	1.51145	78.2206
34	501.19	6006.29	167.172	6008.61	1.59429	79.7526
35	398.11	6026.93	178.566	6029.58	1.69707	81.8346
36	316.23	6045.43	192.417	6048.49	1.82303	83.2417
37	251.19	6066.4	208.327	6069.98	1.96682	84.7737
38	199.53	6093.76	227.329	6098	2.13644	86.1057
39	158.49	6120.02	248.834	6125.08	2.32831	88.2428
40	125.89	6151.33	272.768	6157.38	2.53899	89.7248
41	100	6182.81	299.761	6190.07	2.7757	91.0418
42	79.433	6221.57	328.938	6230.26	3.02645	92.4438
43	63.096	6268.2	357.926	6278.41	3.26814	94.1259
44	50.119	6313.96	393.237	6326.19	3.56381	95.9079
45	39.811	6361.32	435.119	6376.18	3.91298	97.4249
46	31.623	6415.03	477.424	6432.78	4.25626	99.372
47	25.119	6472.74	522.65	6493.8	4.61641	101.844
48	19.953	6540.27	577.471	6565.72	5.04583	104.966
49	15.849	6615.1	633.881	6645.4	5.47356	107.523
50	12.589	6690.75	697.587	6727.02	5.95223	110
51	10	6769.91	772.715	6813.86	6.51154	113.287
52	7.9433	6857.19	855.466	6910.35	7.11117	116.034
53	6.3096	6956.45	954.053	7021.56	7.80921	118.711
54	5.0119	7056.26	1066.51	7136.4	8.59487	121.798
55	3.9811	7169.08	1197.67	7268.43	9.48427	124.645
56	3.1623	7291.95	1350.3	7415.92	10.491	127.537
57	2.5119	7428.22	1531	7584.36	11.6459	130.52
58	1.9953	7571.41	1743.15	7769.48	12.9651	133.372
59	1.5849	7737.64	1992.06	7989.96	14.4373	136.599
60	1.2589	7912.36	2294.94	8238.45	16.1745	139.806
61	1	8107.77	2641.59	8527.25	18.0461	143.338
62	0.79433	8341.9	3077.77	8891.56	20.2517	147.12
63	0.63096	8589.12	3564.04	9299.22	22.5359	150.877
64	0.50119	8850.49	4172.56	9784.76	25.2415	155.074
65	0.39811	9125.58	4891.34	10353.8	28.1914	159.761
66	0.31623	9485.95	5784.9	11110.7	31.3764	165.473
67	0.25119	9858.7	6854.67	12007.5	34.8106	171.215
68	0.19953	10356.1	8199.54	13209.2	38.3707	177.792
69	0.15849	10855	9768.93	14603.5	41.9855	185.38
70	0.12589	11429	11633.1	16308	45.507	194.397
71	0.1	11952	14054.2	18449.1	49.6214	204.879