File: data/Z_s9_1.txt
Index	Frequency (Hz)	Z' (Ω)	-Z'' (Ω)	Z (Ω)	-Phase (°)	Time (s)
1	1000000	2315.48	1895.98	2992.69	39.3116	73.2375
2	794330	2673.39	1815.32	3231.47	34.1777	75.6295
3	630960	3043.2	1704.36	3487.96	29.2513	77.7266
4	501190	3376.36	1578.02	3726.92	25.0501	79.4786
5	398110	3697.73	1410.22	3957.52	20.8755	81.7906
6	316230	3924.75	1272.53	4125.89	17.9644	83.7127
7	251190	4041.24	1097.09	4187.51	15.1883	85.7347
8	199530	4214.25	992.081	4329.45	13.2469	87.8318
9	158490	4359.96	889.825	4449.83	11.5351	89.8988
10	125890	4477.15	792.295	4546.71	10.0354	92.1958
11	100000	4580.28	701.704	4633.72	8.71006	94.2429
12	79433	4665.03	618.538	4705.85	7.55282	96.8549
13	63096	4736.1	542.759	4767.1	6.5376	99.517
14	50119	4796.23	474.407	4819.63	5.64889	101.489
15	39811	4845.88	413.43	4863.48	4.87643	103.841
16	31623	4885.83	360.069	4899.08	4.21489	105.813
17	25119	4920.57	317.189	4930.78	3.68829	108.185
18	19953	4949.4	280.224	4957.32	3.2405	110.857
19	15849	4976.11	249.178	4982.34	2.86669	112.849
20	12589	4995.68	223.517	5000.68	2.56182	114.826
21	10000	5016.64	203.18	5020.75	2.31928	116.623
22	7943.3	5037.74	186.946	5041.21	2.12522	118.475
23	6309.6	5055.69	174.165	5058.69	1.97302	120.367
24	5011.9	5072.96	165.038	5075.65	1.86334	122.239
25	3981.1	5089.21	158.375	5091.67	1.78246	124.971
26	3162.3	5105.35	154.446	5107.68	1.73277	126.983
27	2511.9	5122.8	153.18	5125.08	1.71273	129.276
28	1995.3	5140.15	154.312	5142.46	1.71956	131.518
29	1584.9	5159.24	157.927	5161.66	1.75331	133.215
30	1258.9	5175.09	162.73	5177.65	1.80106	134.937
31	1000	5194.4	171.221	5197.22	1.88793	136.899
32	794.33	5213.82	182.018	5217	1.99942	139.201
33	630.96	5234.37	194.664	5237.98	2.12982	140.918
34	501.19	5259.74	210.477	5263.95	2.29156	143.18
35	398.11	5285.55	229.013	5290.51	2.48097	145.002
36	316.23	5314.49	251.109	5320.42	2.7052	147.034
37	251.19	5344.72	275.268	5351.81	2.94829	149.576
38	199.53	5382.34	302.686	5390.85	3.21875	151.318
39	158.49	5420.05	333.656	5430.31	3.52266	153.14
40	125.89	5464.99	366.08	5477.24	3.83231	155.082
41	100	5510.2	401.921	5524.84	4.17184	157.489
42	79.433	5564.66	442.241	5582.21	4.54392	159.506
43	63.096	5626.31	481.281	5646.86	4.88924	161.713
44	50.119	5691.88	528.555	5716.37	5.30535	164.095
45	39.811	5762.54	577.511	5791.4	5.72297	166.092
46	31.623	5843.37	630.075	5877.25	6.15427	168.554
47	25.119	5923.62	686.745	5963.29	6.61297	170.921
48	19.953	6011.99	752.492	6058.9	7.13434	173.298
49	15.849	6106.83	824.015	6162.17	7.68469	176.005
50	12.589	6205.71	903.956	6271.2	8.28771	178.502
51	10	6313.22	994.16	6391.01	8.94904	181.619
52	7.9433	6430.68	1100.21	6524.12	9.7086	184.892
53	6.3096	6549.03	1221.89	6662.04	10.5685	188.064
54	5.0119	6684.95	1366.3	6823.15	11.5513	191.196
55	3.9811	6829.28	1531.64	6998.93	12.6408	194.248
56	3.1623	6986.55	1727.56	7196.97	13.8889	197.655
57	2.5119	7156.18	1959.66	7419.65	15.3145	200.907
58	1.9953	7344.47	2233.56	7676.59	16.9152	204.089
59	1.5849	7552.43	2561.51	7975	18.735	207.371
60	1.2589	7781.42	2942.69	8319.25	20.7151	211.953
61	1	8036.45	3404.26	8727.74	22.9577	216.045
62	0.79433	8322.09	3959.05	9215.82	25.4417	219.937
63	0.63096	8641.03	4612.78	9795.16	28.0943	223.784
64	0.50119	9004.08	5392.41	10495.3	30.9168	228.106
65	0.39811	9389.26	6335.21	11326.7	34.0087	233.253
66	0.31623	9842.43	7480.19	12362.3	37.2346	238.451
67	0.25119	10367	8848.93	13630.1	40.4829	244.878
68	0.19953	11047.1	10587.1	15301.2	43.7817	251.84
69	0.15849	11766.4	12618.5	17253.2	47.0013	259.452
70	0.12589	12588.6	15029	19604.7	50.0497	268.954
71	0.1	13610.2	17869.9	22462.7	52.7062	280.046