File: data/Z_s9_1.3.txt
Index	Frequency (Hz)	Z' (Ω)	-Z'' (Ω)	Z (Ω)	-Phase (°)	Time (s)
1	1000000	2781.4	2012.97	3433.4	35.8943	23.2896
2	794330	3087.28	1855.11	3601.77	31.0011	25.1866
3	630960	3439.07	1731.6	3850.41	26.7256	27.0386
4	501190	3766.34	1624.67	4101.81	23.3338	28.6957
5	398110	4115.36	1469.93	4370	19.6558	30.3627
6	316230	4366.53	1353.88	4571.61	17.2265	32.0297
7	251190	4498.56	1187.37	4652.63	14.7857	33.4617
8	199530	4702.08	1080.67	4824.67	12.9435	35.0688
9	158490	4868.59	970.13	4964.3	11.2693	36.5408
10	125890	5006.59	862.379	5080.32	9.77321	38.8428
11	100000	5116.93	760.249	5173.1	8.45091	40.3149
12	79433	5210.83	667.835	5253.45	7.30338	41.9369
13	63096	5284.83	583.757	5316.97	6.30327	43.4189
14	50119	5347.61	508.798	5371.76	5.43505	45.011
15	39811	5405.28	442.578	5423.37	4.68087	46.468
16	31623	5443.88	384.833	5457.47	4.04357	48.08
17	25119	5477.92	338.38	5488.36	3.53476	49.9271
18	19953	5511.04	298.407	5519.12	3.09937	51.9491
19	15849	5537.16	264.349	5543.47	2.73327	53.7211
20	12589	5562.07	236.012	5567.07	2.42975	55.6182
21	10000	5581.89	212.596	5585.94	2.18116	57.4052
22	7943.3	5604.83	193.92	5608.19	1.98157	59.3572
23	6309.6	5624.39	178.829	5627.23	1.82112	61.0793
24	5011.9	5643.44	166.626	5645.9	1.6912	62.9563
25	3981.1	5660.46	157.175	5662.65	1.59053	64.5233
26	3162.3	5677.03	150.306	5679.02	1.51662	66.3654
27	2511.9	5693.08	145.291	5694.93	1.46191	68.0474
28	1995.3	5710.67	143.064	5712.47	1.43508	69.6544
29	1584.9	5725.03	142.543	5726.81	1.42627	71.3714
30	1258.9	5743.13	143.688	5744.93	1.43319	72.9435
31	1000	5758.87	147.873	5760.77	1.47089	74.7305
32	794.33	5778.68	153.336	5780.71	1.51998	76.4125
33	630.96	5796.84	161.124	5799.08	1.59213	78.3046
34	501.19	5814.06	170.717	5816.56	1.68189	79.9266
35	398.11	5835.85	184.382	5838.76	1.80964	81.7386
36	316.23	5857.09	198.918	5860.47	1.94512	83.3807
37	251.19	5882.92	215.896	5886.88	2.10174	85.3327
38	199.53	5907.81	236.501	5912.54	2.29244	86.9847
39	158.49	5940.76	258.457	5946.38	2.49112	88.8668
40	125.89	5967.15	282.696	5973.85	2.71238	90.6488
41	100	6009.11	311.752	6017.2	2.96983	92.5808
42	79.433	6047.83	341.729	6057.48	3.23403	94.2529
43	63.096	6093.8	378.082	6105.52	3.55029	96.2949
44	50.119	6142.19	409.426	6155.82	3.81358	98.2719
45	39.811	6198.22	452.158	6214.69	4.17231	100.294
46	31.623	6256.8	494.072	6276.28	4.51503	102.361
47	25.119	6322.5	543.819	6345.84	4.9161	104.343
48	19.953	6387.34	597.22	6415.2	5.34166	106.83
49	15.849	6468.2	656.609	6501.44	5.79643	108.922
50	12.589	6549.29	722.519	6589.02	6.29543	111.389
51	10	6634.59	797.993	6682.41	6.85846	114.301
52	7.9433	6726.52	883.782	6784.34	7.48508	117.088
53	6.3096	6827.46	984.492	6898.07	8.20526	119.88
54	5.0119	6934.86	1099.34	7021.46	9.00775	122.742
55	3.9811	7054.27	1233.87	7161.37	9.92129	125.644
56	3.1623	7178.99	1390.73	7312.46	10.9637	128.557
57	2.5119	7322.98	1578.02	7491.07	12.1607	131.499
58	1.9953	7472.33	1793.39	7684.53	13.496	134.611
59	1.5849	7638.2	2052.58	7909.18	15.0415	137.723
60	1.2589	7816.72	2368.78	8167.75	16.8589	140.91
61	1	8026.79	2715.56	8473.7	18.6913	144.602
62	0.79433	8266.3	3164.89	8851.45	20.9502	148.314
63	0.63096	8519.84	3682.78	9281.73	23.3769	152.216
64	0.50119	8791.25	4302.04	9787.42	26.075	156.503
65	0.39811	9109.79	5076.63	10428.8	29.1297	161.16
66	0.31623	9478.44	5984.5	11209.6	32.2675	166.132
67	0.25119	9837.25	7062.23	12109.8	35.6748	172.174
68	0.19953	10365.2	8449.53	13372.8	39.1862	178.836
69	0.15849	10923	10113.5	14886.1	42.7962	186.524
70	0.12589	11512.4	11985.8	16619	46.1542	195.301
71	0.1	12072.7	14467.4	18842.9	50.1558	205.748