File: data/Z_s9_1.2.txt
Index	Frequency (Hz)	Z' (Ω)	-Z'' (Ω)	Z (Ω)	-Phase (°)	Time (s)
1	1000000	2747.87	1799.5	3284.66	33.2197	20.8665
2	794330	2973.95	1647.26	3399.69	28.9819	22.7635
3	630960	3292.23	1528.59	3629.79	24.9056	24.5856
4	501190	3573.37	1437.35	3851.61	21.912	26.4376
5	398110	3873.25	1289.59	4082.29	18.4151	28.1946
6	316230	4090.75	1186.01	4259.21	16.1682	30.0117
7	251190	4201.95	1031.22	4326.64	13.7887	31.7037
8	199530	4378.62	939.121	4478.2	12.1053	33.4557
9	158490	4525.65	844.644	4603.79	10.5718	35.0778
10	125890	4645.82	751.52	4706.22	9.18871	36.7548
11	100000	4745.6	664.572	4791.91	7.97184	38.3418
12	79433	4827.27	584.191	4862.49	6.90032	40.2339
13	63096	4892.79	511.846	4919.49	5.97212	41.9209
14	50119	4950.09	446.973	4970.23	5.15957	43.6729
15	39811	4993.88	389.448	5009.04	4.45919	45.34
16	31623	5031.74	339.704	5043.19	3.8623	47.037
17	25119	5061.16	299.123	5069.99	3.38234	48.724
18	19953	5091.84	264.551	5098.71	2.97418	50.5111
19	15849	5115.61	235.47	5121.03	2.63545	52.1981
20	12589	5136.62	211.106	5140.96	2.35343	54.1051
21	10000	5157.13	191.454	5160.68	2.12608	55.7821
22	7943.3	5177.27	175.707	5180.25	1.94377	57.4242
23	6309.6	5193.65	163.007	5196.2	1.79769	59.1112
24	5011.9	5210.19	153.206	5212.44	1.6843	60.8182
25	3981.1	5223.3	145.928	5225.34	1.60031	62.5103
26	3162.3	5242.39	140.756	5244.28	1.538	64.0373
27	2511.9	5255.22	137.844	5257.03	1.50252	65.9393
28	1995.3	5272.81	136.751	5274.58	1.48564	67.6364
29	1584.9	5286.96	138.152	5288.76	1.49684	69.3534
30	1258.9	5300.77	141.422	5302.66	1.52826	70.9254
31	1000	5318.82	145.978	5320.83	1.57212	72.7275
32	794.33	5335.78	152.913	5337.97	1.64153	74.4295
33	630.96	5354.87	161.928	5357.32	1.73206	76.3065
34	501.19	5376.17	173.326	5378.96	1.84656	78.7086
35	398.11	5397.31	187.283	5400.56	1.98733	80.4806
36	316.23	5416.08	203.325	5419.89	2.14993	81.8476
37	251.19	5444.15	221.832	5448.67	2.33334	83.1747
38	199.53	5470.84	243.507	5476.26	2.54855	84.4667
39	158.49	5501.41	266.985	5507.88	2.7784	86.0787
40	125.89	5535.64	293.196	5543.4	3.03185	87.4757
41	100	5573.94	322.107	5583.23	3.30734	88.9278
42	79.433	5613.98	354.031	5625.13	3.60843	90.4198
43	63.096	5664.95	386.563	5678.12	3.90368	92.0568
44	50.119	5714.4	424.957	5730.18	4.25302	93.9989
45	39.811	5769.94	466.837	5788.79	4.62564	95.7159
46	31.623	5830.87	511.173	5853.24	5.01012	97.5079
47	25.119	5899.59	558.356	5925.95	5.40655	99.26
48	19.953	5970.6	616.093	6002.31	5.89137	101.132
49	15.849	6047.4	676.456	6085.11	6.38252	103.199
50	12.589	6129.73	745.977	6174.95	6.93868	105.346
51	10	6212.48	821.827	6266.6	7.5357	107.698
52	7.9433	6310.64	912.824	6376.31	8.23066	110.3
53	6.3096	6412.12	1017.21	6492.31	9.01417	112.722
54	5.0119	6523.65	1134.46	6621.55	9.86509	115.249
55	3.9811	6642.04	1274.86	6763.28	10.8651	117.751
56	3.1623	6773.69	1440.52	6925.17	12.0059	120.293
57	2.5119	6917.03	1632.6	7107.09	13.2803	123.08
58	1.9953	7073.23	1863.21	7314.51	14.7574	125.947
59	1.5849	7248.06	2130.12	7554.58	16.3774	128.775
60	1.2589	7432.19	2449.43	7825.42	18.2407	131.717
61	1	7641.54	2839.99	8152.22	20.3876	135.039
62	0.79433	7888.42	3299.28	8550.58	22.6968	138.511
63	0.63096	8158.25	3835.83	9015.02	25.1819	142.273
64	0.50119	8447.26	4485.8	9564.45	27.9699	146.3
65	0.39811	8774.01	5297.84	10249.4	31.124	151.447
66	0.31623	9155.82	6251.08	11086.3	34.3231	156.434
67	0.25119	9520.78	7413.43	12066.7	37.9064	162.261
68	0.19953	10051.8	8783.69	13348.8	41.1484	168.798
69	0.15849	10627.5	10465.9	14915.7	44.561	176.37
70	0.12589	11301.1	12535.2	16877.4	47.9638	186.133
71	0.1	11931.6	15059.4	19213.3	51.6101	196.83